File: cleaned_data.csv
Alloy_Name,Alloy_Type,Cu,Al,Ag,B,Be,Ca,Co,Ce,Cr,Fe,Hf,La,Mg,Mn,Mo,Nb,Nd,Ni,P,Pb,Pr,Si,Sn,Ti,V,Zn,Zr,Solid_Solution_Temp_K,Solid_Solution_Time_h,Cold_Rolling_Reduction,Secondary_Treatment_YN,Aging_Temp_K,Aging_Time_h,Secondary_Mech_YN,Hardness_HV,Yield_Strength_MPa,Ultimate_Tensile_Strength_MPa,Electrical_Conductivity_IACS,DOI
Cu-0.1Ag–0.3Cr,Cu low alloyed,99.6,0.0,0.1,0.0,0.0,0,0.0,0.0,0.3,0.0,0,0,0.0,0,0,0,0,0.0,0.0,0,0,0.0,0.0,0.0,0.0,0.0,0.0,1223.0,1.0,0.0,N,,,N,85.0,,,45.0,http://dx.doi.org/10.1016/j.msea.2005.09.118
Cu-0.1Ag–0.3Cr,Cu low alloyed,99.6,0.0,0.1,0.0,0.0,0,0.0,0.0,0.3,0.0,0,0,0.0,0,0,0,0,0.0,0.0,0,0,0.0,0.0,0.0,0.0,0.0,0.0,1223.0,1.0,0.0,Y,673.0,1.0,N,92.0,,,50.0,http://dx.doi.org/10.1016/j.msea.2005.09.118
Cu-0.1Ag–0.3Cr,Cu low alloyed,99.6,0.0,0.1,0.0,0.0,0,0.0,0.0,0.3,0.0,0,0,0.0,0,0,0,0,0.0,0.0,0,0,0.0,0.0,0.0,0.0,0.0,0.0,1223.0,1.0,0.0,Y,673.0,8.0,N,120.0,,,78.0,http://dx.doi.org/10.1016/j.msea.2005.09.118
Cu-0.1Ag–0.3Cr,Cu low alloyed,99.6,0.0,0.1,0.0,0.0,0,0.0,0.0,0.3,0.0,0,0,0.0,0,0,0,0,0.0,0.0,0,0,0.0,0.0,0.0,0.0,0.0,0.0,1223.0,1.0,0.0,Y,723.0,0.5,N,124.0,,,66.0,http://dx.doi.org/10.1016/j.msea.2005.09.118
Cu-0.1Ag–0.3Cr,Cu low alloyed,99.6,0.0,0.1,0.0,0.0,0,0.0,0.0,0.3,0.0,0,0,0.0,0,0,0,0,0.0,0.0,0,0,0.0,0.0,0.0,0.0,0.0,0.0,1223.0,1.0,0.0,Y,723.0,4.0,N,144.0,,,82.0,http://dx.doi.org/10.1016/j.msea.2005.09.118
Cu-0.1Ag–0.3Cr,Cu low alloyed,99.6,0.0,0.1,0.0,0.0,0,0.0,0.0,0.3,0.0,0,0,0.0,0,0,0,0,0.0,0.0,0,0,0.0,0.0,0.0,0.0,0.0,0.0,1223.0,1.0,0.0,Y,823.0,0.25,N,115.0,,,81.0,http://dx.doi.org/10.1016/j.msea.2005.09.118
Cu-0.1Ag–0.3Cr,Cu low alloyed,99.6,0.0,0.1,0.0,0.0,0,0.0,0.0,0.3,0.0,0,0,0.0,0,0,0,0,0.0,0.0,0,0,0.0,0.0,0.0,0.0,0.0,0.0,1223.0,1.0,0.0,Y,823.0,2.0,N,120.0,,,84.0,http://dx.doi.org/10.1016/j.msea.2005.09.118
Cu-0.1Ag–0.3Cr,Cu low alloyed,99.6,0.0,0.1,0.0,0.0,0,0.0,0.0,0.3,0.0,0,0,0.0,0,0,0,0,0.0,0.0,0,0,0.0,0.0,0.0,0.0,0.0,0.0,1223.0,1.0,0.0,Y,823.0,16.0,N,103.0,,,86.0,http://dx.doi.org/10.1016/j.msea.2005.09.118
Cu-0.1Cr-0.06Zr,Cu low alloyed,99.84,0.0,0.0,0.0,0.0,0,0.0,0.0,0.1,0.0,0,0,0.0,0,0,0,0,0.0,0.0,0,0,0.0,0.0,0.0,0.0,0.0,0.06,1273.0,1.0,0.0,Y,473.0,1.0,N,78.0,,,59.0,http://dx.doi.org/10.1016/j.matlet.2017.04.039
Cu-0.1Cr-0.06Zr,Cu low alloyed,99.84,0.0,0.0,0.0,0.0,0,0.0,0.0,0.1,0.0,0,0,0.0,0,0,0,0,0.0,0.0,0,0,0.0,0.0,0.0,0.0,0.0,0.06,1273.0,1.0,0.0,Y,623.0,1.0,N,78.0,,,61.0,http://dx.doi.org/10.1016/j.matlet.2017.04.039
Cu-0.1Cr-0.06Zr,Cu low alloyed,99.84,0.0,0.0,0.0,0.0,0,0.0,0.0,0.1,0.0,0,0,0.0,0,0,0,0,0.0,0.0,0,0,0.0,0.0,0.0,0.0,0.0,0.06,1273.0,1.0,0.0,Y,773.0,1.0,N,112.0,,,78.0,http://dx.doi.org/10.1016/j.matlet.2017.04.039
Cu-0.5Cr-0.08Zr,Cu low alloyed,99.42,0.0,0.0,0.0,0.0,0,0.0,0.0,0.5,0.0,0,0,0.0,0,0,0,0,0.0,0.0,0,0,0.0,0.0,0.0,0.0,0.0,0.08,1273.0,1.0,0.0,Y,373.0,1.0,N,76.0,,,38.0,http://dx.doi.org/10.1016/j.matlet.2017.04.039
Cu-0.5Cr-0.08Zr,Cu low alloyed,99.42,0.0,0.0,0.0,0.0,0,0.0,0.0,0.5,0.0,0,0,0.0,0,0,0,0,0.0,0.0,0,0,0.0,0.0,0.0,0.0,0.0,0.08,1273.0,1.0,0.0,Y,573.0,1.0,N,79.0,,,38.0,http://dx.doi.org/10.1016/j.matlet.2017.04.039
Cu-0.5Cr-0.08Zr,Cu low alloyed,99.42,0.0,0.0,0.0,0.0,0,0.0,0.0,0.5,0.0,0,0,0.0,0,0,0,0,0.0,0.0,0,0,0.0,0.0,0.0,0.0,0.0,0.08,1273.0,1.0,0.0,Y,723.0,1.0,N,105.0,,,61.0,http://dx.doi.org/10.1016/j.matlet.2017.04.039
Cu-1Cr-0.1Zr,Cu low alloyed,98.9,0.0,0.0,0.0,0.0,0,0.0,0.0,1.0,0.0,0,0,0.0,0,0,0,0,0.0,0.0,0,0,0.0,0.0,0.0,0.0,0.0,0.1,1273.0,1.0,0.0,N,,,N,81.0,,,37.0,http://dx.doi.org/10.1016/j.matlet.2017.04.039
Cu-1Cr-0.1Zr,Cu low alloyed,98.9,0.0,0.0,0.0,0.0,0,0.0,0.0,1.0,0.0,0,0,0.0,0,0,0,0,0.0,0.0,0,0,0.0,0.0,0.0,0.0,0.0,0.1,1273.0,1.0,0.0,Y,523.0,1.0,N,81.0,,,38.0,http://dx.doi.org/10.1016/j.matlet.2017.04.039
Cu-1Cr-0.1Zr,Cu low alloyed,98.9,0.0,0.0,0.0,0.0,0,0.0,0.0,1.0,0.0,0,0,0.0,0,0,0,0,0.0,0.0,0,0,0.0,0.0,0.0,0.0,0.0,0.1,1273.0,1.0,0.0,Y,673.0,1.0,N,92.0,,,42.0,http://dx.doi.org/10.1016/j.matlet.2017.04.039
Cu-1Cr-0.1Zr,Cu low alloyed,98.9,0.0,0.0,0.0,0.0,0,0.0,0.0,1.0,0.0,0,0,0.0,0,0,0,0,0.0,0.0,0,0,0.0,0.0,0.0,0.0,0.0,0.1,1273.0,1.0,0.0,Y,823.0,1.0,N,145.0,,,83.0,http://dx.doi.org/10.1016/j.matlet.2017.04.039
Cu-0.3Cr-0.5Zr,Cu low alloyed,99.2,0.0,0.0,0.0,0.0,0,0.0,0.0,0.3,0.0,0,0,0.0,0,0,0,0,0.0,0.0,0,0,0.0,0.0,0.0,0.0,0.0,0.5,1273.0,1.0,0.0,Y,473.0,1.0,N,84.0,,,32.0,http://dx.doi.org/10.1016/j.matlet.2017.04.039
Cu-0.3Cr-0.5Zr,Cu low alloyed,99.2,0.0,0.0,0.0,0.0,0,0.0,0.0,0.3,0.0,0,0,0.0,0,0,0,0,0.0,0.0,0,0,0.0,0.0,0.0,0.0,0.0,0.5,1273.0,1.0,0.0,Y,623.0,1.0,N,87.0,,,36.0,http://dx.doi.org/10.1016/j.matlet.2017.04.039
Cu-0.3Cr-0.5Zr,Cu low alloyed,99.2,0.0,0.0,0.0,0.0,0,0.0,0.0,0.3,0.0,0,0,0.0,0,0,0,0,0.0,0.0,0,0,0.0,0.0,0.0,0.0,0.0,0.5,1273.0,1.0,0.0,Y,773.0,1.0,N,157.0,,,65.0,http://dx.doi.org/10.1016/j.matlet.2017.04.039
Cu-0.5Zr-0.065B,Cu low alloyed,99.435,0.0,0.0,0.065,0.0,0,0.0,0.0,0.0,0.0,0,0,0.0,0,0,0,0,0.0,0.0,0,0,0.0,0.0,0.0,0.0,0.0,0.5,1208.0,1.0,80.0,Y,603.0,1.0,N,,,502.0,72.0,https://doi.org/10.1016/j.jallcom.2014.07.010
Cu-0.5Zr-0.065B,Cu low alloyed,99.435,0.0,0.0,0.065,0.0,0,0.0,0.0,0.0,0.0,0,0,0.0,0,0,0,0,0.0,0.0,0,0,0.0,0.0,0.0,0.0,0.0,0.5,1208.0,1.0,80.0,Y,603.0,6.0,N,,,520.0,74.0,https://doi.org/10.1016/j.jallcom.2014.07.010
Cu-0.5Zr-0.065B,Cu low alloyed,99.435,0.0,0.0,0.065,0.0,0,0.0,0.0,0.0,0.0,0,0,0.0,0,0,0,0,0.0,0.0,0,0,0.0,0.0,0.0,0.0,0.0,0.5,1208.0,1.0,80.0,Y,633.0,2.0,N,,,524.0,77.0,https://doi.org/10.1016/j.jallcom.2014.07.010
Cu-0.5Zr-0.065B,Cu low alloyed,99.435,0.0,0.0,0.065,0.0,0,0.0,0.0,0.0,0.0,0,0,0.0,0,0,0,0,0.0,0.0,0,0,0.0,0.0,0.0,0.0,0.0,0.5,1208.0,1.0,80.0,Y,633.0,10.0,N,,,507.0,79.0,https://doi.org/10.1016/j.jallcom.2014.07.010
Cu-0.5Zr-0.065B,Cu low alloyed,99.435,0.0,0.0,0.065,0.0,0,0.0,0.0,0.0,0.0,0,0,0.0,0,0,0,0,0.0,0.0,0,0,0.0,0.0,0.0,0.0,0.0,0.5,1208.0,1.0,80.0,Y,663.0,4.0,N,,,524.0,78.0,https://doi.org/10.1016/j.jallcom.2014.07.010
Cu-0.5Zr-0.065B,Cu low alloyed,99.435,0.0,0.0,0.065,0.0,0,0.0,0.0,0.0,0.0,0,0,0.0,0,0,0,0,0.0,0.0,0,0,0.0,0.0,0.0,0.0,0.0,0.5,1208.0,1.0,80.0,Y,693.0,1.0,N,,,524.0,78.0,https://doi.org/10.1016/j.jallcom.2014.07.010
Cu-0.5Zr-0.065B,Cu low alloyed,99.435,0.0,0.0,0.065,0.0,0,0.0,0.0,0.0,0.0,0,0,0.0,0,0,0,0,0.0,0.0,0,0,0.0,0.0,0.0,0.0,0.0,0.5,1208.0,1.0,80.0,Y,693.0,6.0,N,,,507.0,80.0,https://doi.org/10.1016/j.jallcom.2014.07.010
Cu-0.5Zr-0.065B,Cu low alloyed,99.435,0.0,0.0,0.065,0.0,0,0.0,0.0,0.0,0.0,0,0,0.0,0,0,0,0,0.0,0.0,0,0,0.0,0.0,0.0,0.0,0.0,0.5,1208.0,1.0,80.0,Y,723.0,2.0,N,,,534.0,79.0,https://doi.org/10.1016/j.jallcom.2014.07.010
Cu-0.5Zr-0.065B,Cu low alloyed,99.435,0.0,0.0,0.065,0.0,0,0.0,0.0,0.0,0.0,0,0,0.0,0,0,0,0,0.0,0.0,0,0,0.0,0.0,0.0,0.0,0.0,0.5,1208.0,1.0,80.0,Y,723.0,10.0,N,,,493.0,80.0,https://doi.org/10.1016/j.jallcom.2014.07.010
Cu-0.5Zr-0.065B,Cu low alloyed,99.435,0.0,0.0,0.065,0.0,0,0.0,0.0,0.0,0.0,0,0,0.0,0,0,0,0,0.0,0.0,0,0,0.0,0.0,0.0,0.0,0.0,0.5,1208.0,1.0,80.0,Y,743.0,4.0,N,,,515.0,80.0,https://doi.org/10.1016/j.jallcom.2014.07.010
Cu-0.5Zr-0.065B,Cu low alloyed,99.435,0.0,0.0,0.065,0.0,0,0.0,0.0,0.0,0.0,0,0,0.0,0,0,0,0,0.0,0.0,0,0,0.0,0.0,0.0,0.0,0.0,0.5,1208.0,1.0,80.0,N,,,N,,353.0,490.0,65.0,https://doi.org/10.1016/j.jallcom.2014.07.010
Cu-0.5Zr-0.065B,Cu low alloyed,99.435,0.0,0.0,0.065,0.0,0,0.0,0.0,0.0,0.0,0,0,0.0,0,0,0,0,0.0,0.0,0,0,0.0,0.0,0.0,0.0,0.0,0.5,1208.0,1.0,80.0,Y,743.0,2.0,Y,,470.0,551.0,81.0,https://doi.org/10.1016/j.jallcom.2014.07.010
Cu-0.22Fe-0.06P,Cu low alloyed,99.72,0.0,0.0,0.0,0.0,0,0.0,0.0,0.0,0.22,0,0,0.0,0,0,0,0,0.0,0.0,0,0,0.0,0.0,0.0,0.0,0.0,0.0,1173.0,1.167,50.0,N,,,N,,449.0,489.0,50.0,https://doi.org/10.1016/j.msea.2006.01.068
Cu-0.22Fe-0.06P,Cu low alloyed,99.72,0.0,0.0,0.0,0.0,0,0.0,0.0,0.0,0.22,0,0,0.0,0,0,0,0,0.0,0.0,0,0,0.0,0.0,0.0,0.0,0.0,0.0,1173.0,1.167,50.0,Y,773.0,1.0,N,,233.0,279.0,87.0,https://doi.org/10.1016/j.msea.2006.01.068
Cu-0.22Fe-0.06P-0.02B-0.05Ce,Cu low alloyed,99.65,0.0,0.0,0.02,0.0,0,0.0,0.05,0.0,0.22,0,0,0.0,0,0,0,0,0.0,0.0,0,0,0.0,0.0,0.0,0.0,0.0,0.0,1173.0,1.167,50.0,Y,673.0,1.0,N,,470.0,515.0,80.0,https://doi.org/10.1016/j.msea.2006.01.068
Cu-0.22Fe-0.06P-0.02B-0.05Ce,Cu low alloyed,99.65,0.0,0.0,0.02,0.0,0,0.0,0.05,0.0,0.22,0,0,0.0,0,0,0,0,0.0,0.0,0,0,0.0,0.0,0.0,0.0,0.0,0.0,1173.0,1.167,50.0,Y,773.0,1.0,N,,315.0,387.0,85.0,https://doi.org/10.1016/j.msea.2006.01.068
Cu-0.4Cr,Cu low alloyed,99.6,0.0,0.0,0.0,0.0,0,0.0,0.0,0.4,0.0,0,0,0.0,0,0,0,0,0.0,0.0,0,0,0.0,0.0,0.0,0.0,0.0,0.0,,,80.0,N,,,N,139.0,,,45.0,https://doi.org/10.1016/j.jallcom.2013.08.146
Cu-0.4Cr,Cu low alloyed,99.6,0.0,0.0,0.0,0.0,0,0.0,0.0,0.4,0.0,0,0,0.0,0,0,0,0,0.0,0.0,0,0,0.0,0.0,0.0,0.0,0.0,0.0,,,80.0,Y,623.0,1.0,N,139.0,,,60.0,https://doi.org/10.1016/j.jallcom.2013.08.146
Cu-0.42Cr-0.18Zr,Cu low alloyed,99.4,0.0,0.0,0.0,0.0,0,0.0,0.0,0.42,0.0,0,0,0.0,0,0,0,0,0.0,0.0,0,0,0.0,0.0,0.0,0.0,0.0,0.18,,,80.0,Y,673.0,1.0,N,177.0,,,68.0,https://doi.org/10.1016/j.jallcom.2013.08.146
Cu-0.39Cr-0.15Zr-0.12Ni-0.03Si,Cu low alloyed,99.31,0.0,0.0,0.0,0.0,0,0.0,0.0,0.39,0.0,0,0,0.0,0,0,0,0,0.12,0.0,0,0,0.03,0.0,0.0,0.0,0.0,0.15,,,80.0,Y,723.0,1.0,N,179.0,,,80.0,https://doi.org/10.1016/j.jallcom.2013.08.146
Cu-0.4Cr,Cu low alloyed,99.6,0.0,0.0,0.0,0.0,0,0.0,0.0,0.4,0.0,0,0,0.0,0,0,0,0,0.0,0.0,0,0,0.0,0.0,0.0,0.0,0.0,0.0,,,80.0,Y,723.0,0.25,N,159.0,,,76.0,https://doi.org/10.1016/j.jallcom.2013.08.146
Cu-0.42Cr-0.18Zr,Cu low alloyed,99.4,0.0,0.0,0.0,0.0,0,0.0,0.0,0.42,0.0,0,0,0.0,0,0,0,0,0.0,0.0,0,0,0.0,0.0,0.0,0.0,0.0,0.18,,,80.0,Y,723.0,0.5,N,176.0,,,82.0,https://doi.org/10.1016/j.jallcom.2013.08.146
Cu-0.39Cr-0.15Zr-0.12Ni-0.03Si,Cu low alloyed,99.31,0.0,0.0,0.0,0.0,0,0.0,0.0,0.39,0.0,0,0,0.0,0,0,0,0,0.12,0.0,0,0,0.03,0.0,0.0,0.0,0.0,0.15,,,80.0,Y,723.0,1.0,N,179.0,,,79.0,https://doi.org/10.1016/j.jallcom.2013.08.146
Cu-0.7Cr-0.3Fe,Cu low alloyed,99.05,0.0,0.0,0.0,0.0,0,0.0,0.0,0.68,0.27,0,0,0.0,0,0,0,0,0.0,0.0,0,0,0.0,0.0,0.0,0.0,0.0,0.0,1323.0,2.0,90.0,Y,723.0,1.5,N,,,537.0,66.0,https://doi.org/10.1023/A:1017916930459
Cu-0.7Cr-2.0Fe,Cu low alloyed,97.52,0.0,0.0,0.0,0.0,0,0.0,0.0,0.63,1.85,0,0,0.0,0,0,0,0,0.0,0.0,0,0,0.0,0.0,0.0,0.0,0.0,0.0,1323.0,2.0,40.0,Y,873.0,3.0,N,,,311.0,54.0,https://doi.org/10.1023/A:1017916930459
Cu-1Cr,Cu low alloyed,99.19,0.0,0.0,0.0,0.0,0,0.0,0.0,0.81,0.0,0,0,0.0,0,0,0,0,0.0,0.0,0,0,0.0,0.0,0.0,0.0,0.0,0.0,1323.0,2.0,40.0,Y,723.0,0.333,N,,,409.0,65.0,https://doi.org/10.1023/A:1017916930459
Cu-1Fe,Cu low alloyed,99.0,0.0,0.0,0.0,0.0,0,0.0,0.0,0.05,0.95,0,0,0.0,0,0,0,0,0.0,0.0,0,0,0.0,0.0,0.0,0.0,0.0,0.0,1323.0,2.0,40.0,N,,,N,,,266.0,25.0,https://doi.org/10.1023/A:1017916930459
Cu-0.28Cr-0.19Mg,Cu low alloyed,99.53,0.0,0.0,0.0,0.0,0,0.0,0.0,0.28,0.0,0,0,0.19,0,0,0,0,0.0,0.0,0,0,0.0,0.0,0.0,0.0,0.0,0.0,1223.0,4.0,0.0,Y,663.0,0.0083,N,66.0,,,48.0,https://doi.org/10.1016/j.msea.2006.07.121
Cu-0.28Cr-0.19Mg,Cu low alloyed,99.53,0.0,0.0,0.0,0.0,0,0.0,0.0,0.28,0.0,0,0,0.19,0,0,0,0,0.0,0.0,0,0,0.0,0.0,0.0,0.0,0.0,0.0,1223.0,4.0,0.0,Y,663.0,4.0,N,109.0,,,71.0,https://doi.org/10.1016/j.msea.2006.07.121
Cu-0.28Cr-0.19Mg,Cu low alloyed,99.53,0.0,0.0,0.0,0.0,0,0.0,0.0,0.28,0.0,0,0,0.19,0,0,0,0,0.0,0.0,0,0,0.0,0.0,0.0,0.0,0.0,0.0,1223.0,4.0,0.0,Y,693.0,0.25,N,69.0,,,49.0,https://doi.org/10.1016/j.msea.2006.07.121
Cu-0.28Cr-0.19Mg,Cu low alloyed,99.53,0.0,0.0,0.0,0.0,0,0.0,0.0,0.28,0.0,0,0,0.19,0,0,0,0,0.0,0.0,0,0,0.0,0.0,0.0,0.0,0.0,0.0,1223.0,4.0,0.0,Y,723.0,0.0167,N,65.0,,,47.0,https://doi.org/10.1016/j.msea.2006.07.121
Cu-0.28Cr-0.19Mg,Cu low alloyed,99.53,0.0,0.0,0.0,0.0,0,0.0,0.0,0.28,0.0,0,0,0.19,0,0,0,0,0.0,0.0,0,0,0.0,0.0,0.0,0.0,0.0,0.0,1223.0,4.0,0.0,Y,723.0,6.0,N,122.0,,,84.0,https://doi.org/10.1016/j.msea.2006.07.121
Cu-0.28Cr-0.19Mg,Cu low alloyed,99.53,0.0,0.0,0.0,0.0,0,0.0,0.0,0.28,0.0,0,0,0.19,0,0,0,0,0.0,0.0,0,0,0.0,0.0,0.0,0.0,0.0,0.0,1223.0,4.0,0.0,Y,753.0,0.5,N,107.0,,,76.0,https://doi.org/10.1016/j.msea.2006.07.121
Cu-0.28Cr-0.19Mg,Cu low alloyed,99.53,0.0,0.0,0.0,0.0,0,0.0,0.0,0.28,0.0,0,0,0.19,0,0,0,0,0.0,0.0,0,0,0.0,0.0,0.0,0.0,0.0,0.0,1223.0,4.0,0.0,Y,783.0,0.0417,N,66.0,,,47.0,https://doi.org/10.1016/j.msea.2006.07.121
Cu-0.28Cr-0.19Mg,Cu low alloyed,99.53,0.0,0.0,0.0,0.0,0,0.0,0.0,0.28,0.0,0,0,0.19,0,0,0,0,0.0,0.0,0,0,0.0,0.0,0.0,0.0,0.0,0.0,1223.0,4.0,0.0,Y,783.0,8.0,N,88.0,,,87.0,https://doi.org/10.1016/j.msea.2006.07.121
Cu-1.3Ni-1.4Co-0.56Si-0.03Mg,Cu-Ni-Si alloys,89.83,0.0,0.0,0.0,0.0,0,1.1,0.0,0.0,0.0,0,0,0.1,0,0,0,0,1.2,0.03,0,0,0.55,0.0,0.0,0.0,0.0,0.0,1248.0,2.0,0.0,Y,773.0,4.0,N,258.0,,,43.0,https://doi.org/10.1016/j.actamat.2021.117118
Cu-6Ni-1.4Si-0.1Ti,Cu-Ni-Si alloys,92.35,0.0,0.0,0.0,0.0,0,0.0,0.0,0.0,0.0,0,0,0.0,0,0,0,0,6.2,0.0,0,0,1.34,0.0,0.11,0.0,0.0,0.0,1253.0,2.0,0.0,Y,773.0,0.5,N,247.0,,,31.0,https://doi.org/10.1038/srep30907
Cu-6Ni-1.5Si,Cu-Ni-Si alloys,92.62,0.0,0.0,0.0,0.0,0,0.0,0.0,0.0,0.0,0,0,0.0,0,0,0,0,5.94,0.0,0,0,1.44,0.0,0.0,0.0,0.0,0.0,1253.0,2.0,0.0,Y,773.0,0.5,N,282.0,,,28.0,https://doi.org/10.1038/srep30907
Cu-3.3Ni-1Si-0.8Cr-0.09Mg,Cu-Ni-Si alloys,94.754,0.0,0.0,0.0,0.0,0,0.0,0.0,0.85,0.0,0,0,0.09,0,0,0,0,3.3,0.0,0,0,1.0,0.0,0.0,0.0,0.006,0.0,923.0,5.0,93.4,Y,773.0,2.0,Y,278.0,678.0,861.0,17.0,https://doi.org/10.1179/mst.1993.9.2.142
Cu-3.3Ni-1Si-0.8Cr-0.09Mg,Cu-Ni-Si alloys,94.754,0.0,0.0,0.0,0.0,0,0.0,0.0,0.85,0.0,0,0,0.09,0,0,0,0,3.3,0.0,0,0,1.0,0.0,0.0,0.0,0.006,0.0,923.0,5.0,64.3,Y,773.0,2.0,Y,285.0,676.0,851.0,17.0,https://doi.org/10.1179/mst.1993.9.2.142
Cu-2.1Ni–0.5Si–0.2Zr,Cu-Ni-Si alloys,97.18,0.0,0.0,0.0,0.0,0,0.0,0.0,0.0,0.0,0,0,0.0,0,0,0,0,2.11,0.0,0,0,0.53,0.0,0.0,0.0,0.0,0.18,1193.0,1.5,70.0,Y,723.0,0.5,N,,,591.0,31.0,https://doi.org/10.1007/s12598-013-0024-2
Cu-2.1Ni–0.5Si–0.2Zr,Cu-Ni-Si alloys,97.18,0.0,0.0,0.0,0.0,0,0.0,0.0,0.0,0.0,0,0,0.0,0,0,0,0,2.11,0.0,0,0,0.53,0.0,0.0,0.0,0.0,0.18,1193.0,1.5,70.0,Y,773.0,2.0,N,,,579.0,41.0,https://doi.org/10.1007/s12598-013-0024-2
Cu-6Ni-1.4Si-0.15Mg-0.1Cr,Cu-Ni-Si alloys,92.35,0.0,0.0,0.0,0.0,0,0.0,0.0,0.1,0.0,0,0,0.15,0,0,0,0,6.0,0.0,0,0,1.4,0.0,0.0,0.0,0.0,0.0,1243.0,4.0,0.0,Y,673.0,0.75,N,280.0,,,26.0,https://doi.org/10.1016/j.msea.2013.02.024
Cu-6Ni-1.4Si-0.15Mg-0.1Cr,Cu-Ni-Si alloys,92.35,0.0,0.0,0.0,0.0,0,0.0,0.0,0.1,0.0,0,0,0.15,0,0,0,0,6.0,0.0,0,0,1.4,0.0,0.0,0.0,0.0,0.0,1243.0,4.0,0.0,Y,673.0,14.0,N,298.0,,,34.0,https://doi.org/10.1016/j.msea.2013.02.024
Cu-6Ni-1.4Si-0.15Mg-0.1Cr,Cu-Ni-Si alloys,92.35,0.0,0.0,0.0,0.0,0,0.0,0.0,0.1,0.0,0,0,0.15,0,0,0,0,6.0,0.0,0,0,1.4,0.0,0.0,0.0,0.0,0.0,1243.0,4.0,0.0,Y,723.0,1.5,N,296.0,,,33.0,https://doi.org/10.1016/j.msea.2013.02.024
Cu-6Ni-1.4Si-0.15Mg-0.1Cr,Cu-Ni-Si alloys,92.35,0.0,0.0,0.0,0.0,0,0.0,0.0,0.1,0.0,0,0,0.15,0,0,0,0,6.0,0.0,0,0,1.4,0.0,0.0,0.0,0.0,0.0,1243.0,4.0,0.0,Y,723.0,15.0,N,291.0,,,38.0,https://doi.org/10.1016/j.msea.2013.02.024
Cu-6Ni-1.4Si-0.15Mg-0.1Cr,Cu-Ni-Si alloys,92.35,0.0,0.0,0.0,0.0,0,0.0,0.0,0.1,0.0,0,0,0.15,0,0,0,0,6.0,0.0,0,0,1.4,0.0,0.0,0.0,0.0,0.0,1243.0,4.0,0.0,Y,773.0,1.0,N,290.0,,,34.0,https://doi.org/10.1016/j.msea.2013.02.024
Cu-6Ni-1.4Si-0.15Mg-0.1Cr,Cu-Ni-Si alloys,92.35,0.0,0.0,0.0,0.0,0,0.0,0.0,0.1,0.0,0,0,0.15,0,0,0,0,6.0,0.0,0,0,1.4,0.0,0.0,0.0,0.0,0.0,1243.0,4.0,0.0,Y,773.0,14.0,N,261.0,,,40.0,https://doi.org/10.1016/j.msea.2013.02.024
Cu-6Ni-1.4Si-0.15Mg-0.1Cr,Cu-Ni-Si alloys,92.35,0.0,0.0,0.0,0.0,0,0.0,0.0,0.1,0.0,0,0,0.15,0,0,0,0,6.0,0.0,0,0,1.4,0.0,0.0,0.0,0.0,0.0,1243.0,4.0,50.0,Y,723.0,3.0,N,327.0,,,34.0,https://doi.org/10.1016/j.msea.2013.02.024
Cu-6Ni-1.4Si-0.15Mg-0.1Cr,Cu-Ni-Si alloys,92.35,0.0,0.0,0.0,0.0,0,0.0,0.0,0.1,0.0,0,0,0.15,0,0,0,0,6.0,0.0,0,0,1.4,0.0,0.0,0.0,0.0,0.0,1243.0,4.0,50.0,Y,723.0,20.0,N,258.0,,,43.0,https://doi.org/10.1016/j.msea.2013.02.024
Cu-6Ni-1.4Si-0.15Mg-0.1Cr,Cu-Ni-Si alloys,92.35,0.0,0.0,0.0,0.0,0,0.0,0.0,0.1,0.0,0,0,0.15,0,0,0,0,6.0,0.0,0,0,1.4,0.0,0.0,0.0,0.0,0.0,1243.0,4.0,80.0,Y,723.0,1.5,N,320.0,,,36.0,https://doi.org/10.1016/j.msea.2013.02.024
Cu-6Ni-1.4Si-0.15Mg-0.1Cr,Cu-Ni-Si alloys,92.35,0.0,0.0,0.0,0.0,0,0.0,0.0,0.1,0.0,0,0,0.15,0,0,0,0,6.0,0.0,0,0,1.4,0.0,0.0,0.0,0.0,0.0,1243.0,4.0,80.0,Y,723.0,15.0,N,269.0,,,45.0,https://doi.org/10.1016/j.msea.2013.02.024
Cu-6Ni-1.0Si-0.5Al-0.15Mg-0.1Cr,Cu-Ni-Si alloys,92.25,0.5,0.0,0.0,0.0,0,0.0,0.0,0.1,0.0,0,0,0.15,0,0,0,0,6.0,0.0,0,0,1.0,0.0,0.0,0.0,0.0,0.0,1243.0,4.0,0.0,Y,673.0,2.0,N,288.0,,,25.0,https://doi.org/10.1016/j.msea.2013.02.024
Cu-6Ni-1.0Si-0.5Al-0.15Mg-0.1Cr,Cu-Ni-Si alloys,92.25,0.5,0.0,0.0,0.0,0,0.0,0.0,0.1,0.0,0,0,0.15,0,0,0,0,6.0,0.0,0,0,1.0,0.0,0.0,0.0,0.0,0.0,1243.0,4.0,0.0,Y,673.0,18.0,N,301.0,,,31.0,https://doi.org/10.1016/j.msea.2013.02.024
Cu-6Ni-1.0Si-0.5Al-0.15Mg-0.1Cr,Cu-Ni-Si alloys,92.25,0.5,0.0,0.0,0.0,0,0.0,0.0,0.1,0.0,0,0,0.15,0,0,0,0,6.0,0.0,0,0,1.0,0.0,0.0,0.0,0.0,0.0,1243.0,4.0,0.0,Y,723.0,8.0,N,300.0,,,33.0,https://doi.org/10.1016/j.msea.2013.02.024
Cu-6Ni-1.0Si-0.5Al-0.15Mg-0.1Cr,Cu-Ni-Si alloys,92.25,0.5,0.0,0.0,0.0,0,0.0,0.0,0.1,0.0,0,0,0.15,0,0,0,0,6.0,0.0,0,0,1.0,0.0,0.0,0.0,0.0,0.0,1243.0,4.0,0.0,Y,773.0,1.0,N,302.0,,,31.0,https://doi.org/10.1016/j.msea.2013.02.024
Cu-6Ni-1.0Si-0.5Al-0.15Mg-0.1Cr,Cu-Ni-Si alloys,92.25,0.5,0.0,0.0,0.0,0,0.0,0.0,0.1,0.0,0,0,0.15,0,0,0,0,6.0,0.0,0,0,1.0,0.0,0.0,0.0,0.0,0.0,1243.0,4.0,0.0,Y,773.0,16.0,N,273.0,,,37.0,https://doi.org/10.1016/j.msea.2013.02.024
Cu-6Ni-1.0Si-0.5Al-0.15Mg-0.1Cr,Cu-Ni-Si alloys,92.25,0.5,0.0,0.0,0.0,0,0.0,0.0,0.1,0.0,0,0,0.15,0,0,0,0,6.0,0.0,0,0,1.0,0.0,0.0,0.0,0.0,0.0,1243.0,4.0,50.0,Y,723.0,2.0,N,335.0,,,29.0,https://doi.org/10.1016/j.msea.2013.02.024
[...]
Cu-1.5Ni-0.8Si,Cu-Ni-Si alloys,98.283,0.0,0.0,0.0,0.0,0,0.0,0.0,0.0,0.0,0,0,0.0,0,0,0,0,1.38,0.0,0,0,0.33,0.0,0.0,0.0,0.0,0.0,1223.0,1.0,0.0,Y,773.0,8.0,N,75.0,,,32.0,https://doi.org/10.2320/jinstmet1952.62.4_301
Cu-2.5Ni-1.3Si,Cu-Ni-Si alloys,97.128,0.0,0.0,0.0,0.0,0,0.0,0.0,0.0,0.0,0,0,0.0,0,0,0,0,2.32,0.0,0,0,0.56,0.0,0.0,0.0,0.0,0.0,1223.0,1.0,0.0,Y,773.0,4.0,N,185.0,,,40.0,https://doi.org/10.2320/jinstmet1952.62.4_301
Cu-4.0Ni-2.0Si,Cu-Ni-Si alloys,95.339,0.0,0.0,0.0,0.0,0,0.0,0.0,0.0,0.0,0,0,0.0,0,0,0,0,3.77,0.0,0,0,0.89,0.0,0.0,0.0,0.0,0.0,1223.0,1.0,0.0,Y,773.0,2.0,N,233.0,,,38.0,https://doi.org/10.2320/jinstmet1952.62.4_301
Cu-1.5Ni-0.6Si,Cu-Ni-Si alloys,98.347,0.0,0.0,0.0,0.0,0,0.0,0.0,0.0,0.0,0,0,0.0,0,0,0,0,1.38,0.0,0,0,0.27,0.0,0.0,0.0,0.0,0.0,1223.0,1.0,0.0,Y,773.0,1.0,N,70.0,,,32.0,https://doi.org/10.2320/jinstmet1952.62.4_301
Cu-1.5Ni-0.6Si,Cu-Ni-Si alloys,97.24,0.0,0.0,0.0,0.0,0,0.0,0.0,0.0,0.0,0,0,0.0,0,0,0,0,2.31,0.0,0,0,0.45,0.0,0.0,0.0,0.0,0.0,1223.0,1.0,0.0,Y,773.0,0.333333,N,165.0,,,40.0,https://doi.org/10.2320/jinstmet1952.62.4_301
Cu-4.0Ni-1.6Si,Cu-Ni-Si alloys,95.518,0.0,0.0,0.0,0.0,0,0.0,0.0,0.0,0.0,0,0,0.0,0,0,0,0,3.78,0.0,0,0,0.71,0.0,0.0,0.0,0.0,0.0,1223.0,1.0,0.0,Y,773.0,0.166667,N,184.0,,,34.0,https://doi.org/10.2320/jinstmet1952.62.4_301
Cu-1.5Ni-0.5Si,Cu-Ni-Si alloys,98.393,0.0,0.0,0.0,0.0,0,0.0,0.0,0.0,0.0,0,0,0.0,0,0,0,0,1.39,0.0,0,0,0.22,0.0,0.0,0.0,0.0,0.0,1223.0,1.0,0.0,Y,773.0,0.0833333,N,64.0,,,36.0,https://doi.org/10.2320/jinstmet1952.62.4_301
Cu-2.5Ni-0.8Si,Cu-Ni-Si alloys,93.886,0.0,0.0,0.0,0.0,0,0.0,0.0,0.0,0.0,0,0,0.0,0,0,0,0,2.3,0.0,0,0,3.81,0.0,0.0,0.0,0.0,0.0,1223.0,1.0,0.0,Y,773.0,0.0333333,N,70.0,,,26.0,https://doi.org/10.2320/jinstmet1952.62.4_301
Cu-2.5Ni-0.8Si,Cu-Ni-Si alloys,93.886,0.0,0.0,0.0,0.0,0,0.0,0.0,0.0,0.0,0,0,0.0,0,0,0,0,2.3,0.0,0,0,3.81,0.0,0.0,0.0,0.0,0.0,1223.0,1.0,0.0,Y,773.0,21.0,N,161.0,,,48.0,https://doi.org/10.2320/jinstmet1952.62.4_301
Cu-4.0Ni-1.3Si,Cu-Ni-Si alloys,95.627,0.0,0.0,0.0,0.0,0,0.0,0.0,0.0,0.0,0,0,0.0,0,0,0,0,3.76,0.0,0,0,0.61,0.0,0.0,0.0,0.0,0.0,1223.0,1.0,0.0,Y,773.0,8.0,N,200.0,,,37.0,https://doi.org/10.2320/jinstmet1952.62.4_301
Cu-2.8Ni-0.7Si,Cu-Ni-Si alloys,96.5,0.0,0.0,0.0,0.0,0,0.0,0.0,0.0,0.0,0,0,0.0,0,0,0,0,2.8,0.0,0,0,0.7,0.0,0.0,0.0,0.0,0.0,1223.0,2.0,75.0,Y,673.0,10.0,Y,120.0,,,32.0,https://doi.org/10.1007/s12540-013-4002-x
Cu-2.8Ni-0.7Si,Cu-Ni-Si alloys,96.5,0.0,0.0,0.0,0.0,0,0.0,0.0,0.0,0.0,0,0,0.0,0,0,0,0,2.8,0.0,0,0,0.7,0.0,0.0,0.0,0.0,0.0,1223.0,2.0,75.0,Y,723.0,40.0,Y,140.0,,,39.0,https://doi.org/10.1007/s12540-013-4002-x
Cu-2.8Ni-0.7Si-0.086V,Cu-Ni-Si alloys,96.414,0.0,0.0,0.0,0.0,0,0.0,0.0,0.0,0.0,0,0,0.0,0,0,0,0,2.8,0.0,0,0,0.7,0.0,0.0,0.09,0.0,0.0,1223.0,2.0,75.0,Y,673.0,1.0,Y,96.0,,,24.0,https://doi.org/10.1007/s12540-013-4002-x
Cu-2.8Ni-0.7Si-0.086V,Cu-Ni-Si alloys,96.414,0.0,0.0,0.0,0.0,0,0.0,0.0,0.0,0.0,0,0,0.0,0,0,0,0,2.8,0.0,0,0,0.7,0.0,0.0,0.09,0.0,0.0,1223.0,2.0,75.0,Y,723.0,5.0,Y,143.0,,,32.0,https://doi.org/10.1007/s12540-013-4002-x
Cu-2.8Ni-0.7Si-0.086V,Cu-Ni-Si alloys,96.414,0.0,0.0,0.0,0.0,0,0.0,0.0,0.0,0.0,0,0,0.0,0,0,0,0,2.8,0.0,0,0,0.7,0.0,0.0,0.09,0.0,0.0,1223.0,2.0,75.0,Y,773.0,20.0,Y,189.0,,,56.0,https://doi.org/10.1007/s12540-013-4002-x
Cu-2.8Ni-0.7Si-0.17V,Cu-Ni-Si alloys,96.33,0.0,0.0,0.0,0.0,0,0.0,0.0,0.0,0.0,0,0,0.0,0,0,0,0,2.8,0.0,0,0,0.7,0.0,0.0,0.17,0.0,0.0,1223.0,2.0,75.0,Y,673.0,40.0,Y,137.0,,,30.0,https://doi.org/10.1007/s12540-013-4002-x
Cu-2.8Ni-0.7Si-0.17V,Cu-Ni-Si alloys,96.33,0.0,0.0,0.0,0.0,0,0.0,0.0,0.0,0.0,0,0,0.0,0,0,0,0,2.8,0.0,0,0,0.7,0.0,0.0,0.17,0.0,0.0,1223.0,2.0,75.0,Y,773.0,3.0,Y,152.0,,,35.0,https://doi.org/10.1007/s12540-013-4002-x
Cu-3.2Ni-0.7Si-0.3Zn,Cu-Ni-Si alloys,95.8,0.0,0.0,0.0,0.0,0,0.0,0.0,0.0,0.0,0,0,0.0,0,0,0,0,3.2,0.0,0,0,0.7,0.0,0.0,0.0,0.3,0.0,1173.0,2.0,75.0,Y,723.0,4.0,N,189.0,,,47.0,https://doi.org/10.1016/S0167-577X(02)01212-0
Cu-3.2Ni-0.7Si-0.3Zn,Cu-Ni-Si alloys,95.8,0.0,0.0,0.0,0.0,0,0.0,0.0,0.0,0.0,0,0,0.0,0,0,0,0,3.2,0.0,0,0,0.7,0.0,0.0,0.0,0.3,0.0,1173.0,2.0,0.0,Y,723.0,1.0,N,178.0,,,25.0,https://doi.org/10.1016/S0167-577X(02)01212-0
Cu-3.2Ni-0.7Si-0.3Zn,Cu-Ni-Si alloys,95.8,0.0,0.0,0.0,0.0,0,0.0,0.0,0.0,0.0,0,0,0.0,0,0,0,0,3.2,0.0,0,0,0.7,0.0,0.0,0.0,0.3,0.0,1173.0,2.0,0.0,Y,723.0,256.0,N,180.0,,,51.0,https://doi.org/10.1016/S0167-577X(02)01212-0
Cu-3.2Ni-0.7Si-0.3Zn,Cu-Ni-Si alloys,95.8,0.0,0.0,0.0,0.0,0,0.0,0.0,0.0,0.0,0,0,0.0,0,0,0,0,3.2,0.0,0,0,0.7,0.0,0.0,0.0,0.3,0.0,1173.0,2.0,70.0,Y,673.0,1.0,Y,179.0,,,53.0,https://doi.org/10.1016/S0167-577X(02)01212-0
Cu-3.2Ti,Cu-Ti alloys,96.8,0.0,0.0,0.0,0.0,0,0.0,0.0,0.0,0.0,0,0,0.0,0,0,0,0,0.0,0.0,0,0,0.0,0.0,3.2,0.0,0.0,0.0,1223.0,0.25,60.0,Y,623.0,72.0,N,,,1020.0,21.0,https://doi.org/10.2320/matertrans.M2011173
Cu-3.2Ti,Cu-Ti alloys,96.8,0.0,0.0,0.0,0.0,0,0.0,0.0,0.0,0.0,0,0,0.0,0,0,0,0,0.0,0.0,0,0,0.0,0.0,3.2,0.0,0.0,0.0,1223.0,0.25,15.0,Y,653.0,48.0,N,,,880.0,12.0,https://doi.org/10.2320/matertrans.M2011173
Cu-3.2Ti,Cu-Ti alloys,96.8,0.0,0.0,0.0,0.0,0,0.0,0.0,0.0,0.0,0,0,0.0,0,0,0,0,0.0,0.0,0,0,0.0,0.0,3.2,0.0,0.0,0.0,1223.0,0.25,30.0,Y,653.0,72.0,N,,,923.0,19.0,https://doi.org/10.2320/matertrans.M2011173
Cu-3.2Ti,Cu-Ti alloys,96.8,0.0,0.0,0.0,0.0,0,0.0,0.0,0.0,0.0,0,0,0.0,0,0,0,0,0.0,0.0,0,0,0.0,0.0,3.2,0.0,0.0,0.0,1223.0,0.25,60.0,Y,653.0,144.0,N,,,813.0,41.0,https://doi.org/10.2320/matertrans.M2011173
Cu-2.7Ti-0.15Mg-0.1Ce-0.1Zr,Cu-Ti alloys,96.95,0.0,0.0,0.0,0.0,0,0.0,0.1,0.0,0.0,0,0,0.15,0,0,0,0,0.0,0.0,0,0,0.0,0.0,2.7,0.0,0.0,0.1,1123.0,2.0,90.0,Y,673.0,2.0,N,322.0,,,13.0,https://doi.org/10.1016/j.msea.2015.10.062
Cu-2.7Ti-0.15Mg-0.1Ce-0.1Zr,Cu-Ti alloys,96.95,0.0,0.0,0.0,0.0,0,0.0,0.1,0.0,0.0,0,0,0.15,0,0,0,0,0.0,0.0,0,0,0.0,0.0,2.7,0.0,0.0,0.1,1123.0,2.0,50.0,Y,673.0,4.0,Y,335.0,,,20.0,https://doi.org/10.1016/j.msea.2015.10.062
Cu-2.7Ti-0.15Mg-0.1Ce-0.1Zr,Cu-Ti alloys,96.95,0.0,0.0,0.0,0.0,0,0.0,0.1,0.0,0.0,0,0,0.15,0,0,0,0,0.0,0.0,0,0,0.0,0.0,2.7,0.0,0.0,0.1,1123.0,2.0,90.0,N,,,Y,316.0,,,11.0,https://doi.org/10.1016/j.msea.2015.10.062
Cu-2.7Ti-0.15Mg-0.1Ce-0.1Zr,Cu-Ti alloys,96.95,0.0,0.0,0.0,0.0,0,0.0,0.1,0.0,0.0,0,0,0.15,0,0,0,0,0.0,0.0,0,0,0.0,0.0,2.7,0.0,0.0,0.1,1123.0,2.0,0.0,Y,723.0,8.0,N,242.0,,,15.0,https://doi.org/10.1016/j.msea.2015.10.062
Cu-4.5Ti,Cu-Ti alloys,95.5,0.0,0.0,0.0,0.0,0,0.0,0.0,0.0,0.0,0,0,0.0,0,0,0,0,0.0,0.0,0,0,0.0,0.0,4.5,0.0,0.0,0.0,1173.0,2.0,0.0,N,,,N,245.0,440.0,680.0,8.0,https://doi.org/10.1023/A:1004603906359
Cu-1.5Ti,Cu-Ti alloys,98.5,0.0,0.0,0.0,0.0,0,0.0,0.0,0.0,0.0,0,0,0.0,0,0,0,0,0.0,0.0,0,0,0.0,0.0,1.5,0.0,0.0,0.0,1173.0,2.0,90.0,Y,673.0,6.0,N,280.0,670.0,760.0,22.0,https://doi.org/10.1023/A:1004603906359
Cu-6.17Ti-0.33Cr-0.16Mg,Cu-Ti alloys,93.34,0.0,0.0,0.0,0.0,0,0.0,0.0,0.33,0.0,0,0,0.16,0,0,0,0,0.0,0.0,0,0,0.0,0.0,6.17,0.0,0.0,0.0,1123.0,24.0,60.0,Y,723.0,4.0,N,326.0,,,16.0,https://doi.org/10.1016/j.msea.2021.141581
Cu-3Ti-2Mg,Cu-Ti alloys,95.0,0.0,0.0,0.0,0.0,0,0.0,0.0,0.0,0.0,0,0,2.0,0,0,0,0,0.0,0.0,0,0,0.0,0.0,3.0,0.0,0.0,0.0,1023.0,4.0,50.0,N,,,N,199.0,,,5.0,https://doi.org/10.1016/j.jallcom.2019.152915
Cu-1.95Be,Cu-Be alloys,92.95,0.0,0.0,0.0,1.95,0,0.0,0.0,0.0,0.0,0,0,2.0,0,0,0,0,0.1,0.0,0,0,0.0,0.0,3.0,0.0,0.0,0.0,1193.0,,0.0,Y,593.0,10.0,N,360.0,1156.0,1348.0,24.0,https://doi.org/10.1016/j.msea.2019.138592
Cu-1.7Be,Cu-Be alloys,92.57,0.13,0.0,0.0,1.66,0,0.0,0.0,0.0,0.0,0,0,2.0,0,0,0,0,0.33,0.0,0,0,0.31,0.0,3.0,0.0,0.0,0.0,1053.0,0.17,0.0,Y,573.0,3.0,N,352.0,,,20.0,https://doi.org/10.1016/j.jallcom.2018.09.296
Cu-1.7Be,Cu-Be alloys,92.57,0.13,0.0,0.0,1.66,0,0.0,0.0,0.0,0.0,0,0,2.0,0,0,0,0,0.33,0.0,0,0,0.31,0.0,3.0,0.0,0.0,0.0,1053.0,0.17,0.0,Y,598.0,3.0,N,375.0,779.0,1050.0,22.0,https://doi.org/10.1016/j.jallcom.2018.09.296
Cu-1.7Be,Cu-Be alloys,92.57,0.13,0.0,0.0,1.66,0,0.0,0.0,0.0,0.0,0,0,2.0,0,0,0,0,0.33,0.0,0,0,0.31,0.0,3.0,0.0,0.0,0.0,1053.0,0.17,0.0,Y,623.0,3.0,N,347.0,,,26.0,https://doi.org/10.1016/j.jallcom.2018.09.296
Cu-1.7Be,Cu-Be alloys,92.57,0.13,0.0,0.0,1.66,0,0.0,0.0,0.0,0.0,0,0,2.0,0,0,0,0,0.33,0.0,0,0,0.31,0.0,3.0,0.0,0.0,0.0,1053.0,0.17,0.0,Y,648.0,3.0,N,311.0,,,27.0,https://doi.org/10.1016/j.jallcom.2018.09.296
Cu-2Be,Cu-Be alloys,98.0,0.0,0.0,0.0,2.0,0,0.0,0.0,0.0,0.0,0,0,0.0,0,0,0,0,0.0,0.0,0,0,0.0,0.0,0.0,0.0,0.0,0.0,1073.0,,0.0,Y,593.0,8.0,N,,1164.0,1372.0,22.0,http://dx.doi.org/10.1016/j.msea.2012.08.007
Cu-2Be,Cu-Be alloys,98.0,0.0,0.0,0.0,2.0,0,0.0,0.0,0.0,0.0,0,0,0.0,0,0,0,0,0.0,0.0,0,0,0.0,0.0,0.0,0.0,0.0,0.0,1073.0,,0.0,Y,593.0,16.0,N,,1070.0,1225.0,24.0,http://dx.doi.org/10.1016/j.msea.2012.08.007