File: Cu_alloys_database_2023_06_06.csv
Alloy formula;Alloy class;Cu;Al;Ag;B;Be;Ca;Co;Ce;Cr;Fe;Hf;La;Mg;Mn;Mo;Nb;Nd;Ni;P;Pb;Pr;Si;Sn;Ti;V;Zn;Zr;Tss (K);tss (h);CR reduction (%);Aging;Tag (K);tag (h);Secondary thermo-mechanical process;Hardness (HV);Yield strength (MPa);Ultimate tensile strength (MPa);Electrical conductivity (%IACS);DOI
Cu-0.1Ag–0.3Cr;Cu low alloyed;99.6;0;0.1;0;0;0;0;0;0.3;0;0;0;0;0;0;0;0;0;0;0;0;0;0;0;0;0;0;1223;1;0;N;;;N;85;;;45;http://dx.doi.org/10.1016/j.msea.2005.09.118
Cu-0.1Ag–0.3Cr;Cu low alloyed;99.6;0;0.1;0;0;0;0;0;0.3;0;0;0;0;0;0;0;0;0;0;0;0;0;0;0;0;0;0;1223;1;0;Y;673;0.25;N;87;;;45;http://dx.doi.org/10.1016/j.msea.2005.09.118
Cu-0.1Ag–0.3Cr;Cu low alloyed;99.6;0;0.1;0;0;0;0;0;0.3;0;0;0;0;0;0;0;0;0;0;0;0;0;0;0;0;0;0;1223;1;0;Y;673;0.5;N;88;;;47;http://dx.doi.org/10.1016/j.msea.2005.09.118
Cu-0.1Ag–0.3Cr;Cu low alloyed;99.6;0;0.1;0;0;0;0;0;0.3;0;0;0;0;0;0;0;0;0;0;0;0;0;0;0;0;0;0;1223;1;0;Y;673;1;N;92;;;50;http://dx.doi.org/10.1016/j.msea.2005.09.118
Cu-0.1Ag–0.3Cr;Cu low alloyed;99.6;0;0.1;0;0;0;0;0;0.3;0;0;0;0;0;0;0;0;0;0;0;0;0;0;0;0;0;0;1223;1;0;Y;673;2;N;100;;;59;http://dx.doi.org/10.1016/j.msea.2005.09.118
Cu-0.1Ag–0.3Cr;Cu low alloyed;99.6;0;0.1;0;0;0;0;0;0.3;0;0;0;0;0;0;0;0;0;0;0;0;0;0;0;0;0;0;1223;1;0;Y;673;4;N;112;;;74;http://dx.doi.org/10.1016/j.msea.2005.09.118
Cu-0.1Ag–0.3Cr;Cu low alloyed;99.6;0;0.1;0;0;0;0;0;0.3;0;0;0;0;0;0;0;0;0;0;0;0;0;0;0;0;0;0;1223;1;0;Y;673;8;N;120;;;78;http://dx.doi.org/10.1016/j.msea.2005.09.118
Cu-0.1Ag–0.3Cr;Cu low alloyed;99.6;0;0.1;0;0;0;0;0;0.3;0;0;0;0;0;0;0;0;0;0;0;0;0;0;0;0;0;0;1223;1;0;Y;673;16;N;126;;;80;http://dx.doi.org/10.1016/j.msea.2005.09.118
Cu-0.1Ag–0.3Cr;Cu low alloyed;99.6;0;0.1;0;0;0;0;0;0.3;0;0;0;0;0;0;0;0;0;0;0;0;0;0;0;0;0;0;1223;1;0;Y;723;0.25;N;101;;;55;http://dx.doi.org/10.1016/j.msea.2005.09.118
Cu-0.1Ag–0.3Cr;Cu low alloyed;99.6;0;0.1;0;0;0;0;0;0.3;0;0;0;0;0;0;0;0;0;0;0;0;0;0;0;0;0;0;1223;1;0;Y;723;0.5;N;124;;;66;http://dx.doi.org/10.1016/j.msea.2005.09.118
Cu-0.1Ag–0.3Cr;Cu low alloyed;99.6;0;0.1;0;0;0;0;0;0.3;0;0;0;0;0;0;0;0;0;0;0;0;0;0;0;0;0;0;1223;1;0;Y;723;1;N;132;;;78;http://dx.doi.org/10.1016/j.msea.2005.09.118
Cu-0.1Ag–0.3Cr;Cu low alloyed;99.6;0;0.1;0;0;0;0;0;0.3;0;0;0;0;0;0;0;0;0;0;0;0;0;0;0;0;0;0;1223;1;0;Y;723;2;N;138;;;81;http://dx.doi.org/10.1016/j.msea.2005.09.118
Cu-0.1Ag–0.3Cr;Cu low alloyed;99.6;0;0.1;0;0;0;0;0;0.3;0;0;0;0;0;0;0;0;0;0;0;0;0;0;0;0;0;0;1223;1;0;Y;723;4;N;144;;;82;http://dx.doi.org/10.1016/j.msea.2005.09.118
Cu-0.1Ag–0.3Cr;Cu low alloyed;99.6;0;0.1;0;0;0;0;0;0.3;0;0;0;0;0;0;0;0;0;0;0;0;0;0;0;0;0;0;1223;1;0;Y;723;8;N;140;;;83;http://dx.doi.org/10.1016/j.msea.2005.09.118
Cu-0.1Ag–0.3Cr;Cu low alloyed;99.6;0;0.1;0;0;0;0;0;0.3;0;0;0;0;0;0;0;0;0;0;0;0;0;0;0;0;0;0;1223;1;0;Y;723;16;N;134;;;84;http://dx.doi.org/10.1016/j.msea.2005.09.118
Cu-0.1Ag–0.3Cr;Cu low alloyed;99.6;0;0.1;0;0;0;0;0;0.3;0;0;0;0;0;0;0;0;0;0;0;0;0;0;0;0;0;0;1223;1;0;Y;823;0.25;N;115;;;81;http://dx.doi.org/10.1016/j.msea.2005.09.118
Cu-0.1Ag–0.3Cr;Cu low alloyed;99.6;0;0.1;0;0;0;0;0;0.3;0;0;0;0;0;0;0;0;0;0;0;0;0;0;0;0;0;0;1223;1;0;Y;823;0.5;N;127;;;84;http://dx.doi.org/10.1016/j.msea.2005.09.118
Cu-0.1Ag–0.3Cr;Cu low alloyed;99.6;0;0.1;0;0;0;0;0;0.3;0;0;0;0;0;0;0;0;0;0;0;0;0;0;0;0;0;0;1223;1;0;Y;823;1;N;124;;;84;http://dx.doi.org/10.1016/j.msea.2005.09.118
Cu-0.1Ag–0.3Cr;Cu low alloyed;99.6;0;0.1;0;0;0;0;0;0.3;0;0;0;0;0;0;0;0;0;0;0;0;0;0;0;0;0;0;1223;1;0;Y;823;2;N;120;;;84;http://dx.doi.org/10.1016/j.msea.2005.09.118
Cu-0.1Ag–0.3Cr;Cu low alloyed;99.6;0;0.1;0;0;0;0;0;0.3;0;0;0;0;0;0;0;0;0;0;0;0;0;0;0;0;0;0;1223;1;0;Y;823;4;N;115;;;85;http://dx.doi.org/10.1016/j.msea.2005.09.118
Cu-0.1Ag–0.3Cr;Cu low alloyed;99.6;0;0.1;0;0;0;0;0;0.3;0;0;0;0;0;0;0;0;0;0;0;0;0;0;0;0;0;0;1223;1;0;Y;823;8;N;110;;;85;http://dx.doi.org/10.1016/j.msea.2005.09.118
Cu-0.1Ag–0.3Cr;Cu low alloyed;99.6;0;0.1;0;0;0;0;0;0.3;0;0;0;0;0;0;0;0;0;0;0;0;0;0;0;0;0;0;1223;1;0;Y;823;16;N;103;;;86;http://dx.doi.org/10.1016/j.msea.2005.09.118
Cu-0.1Cr-0.06Zr;Cu low alloyed;99.84;0;0;0;0;0;0;0;0.1;0;0;0;0;0;0;0;0;0;0;0;0;0;0;0;0;0;0.06;1273;1;0;N;;;N;71;;;60;http://dx.doi.org/10.1016/j.matlet.2017.04.039
Cu-0.1Cr-0.06Zr;Cu low alloyed;99.84;0;0;0;0;0;0;0;0.1;0;0;0;0;0;0;0;0;0;0;0;0;0;0;0;0;0;0.06;1273;1;0;Y;373;1;N;68;;;58;http://dx.doi.org/10.1016/j.matlet.2017.04.039
Cu-0.1Cr-0.06Zr;Cu low alloyed;99.84;0;0;0;0;0;0;0;0.1;0;0;0;0;0;0;0;0;0;0;0;0;0;0;0;0;0;0.06;1273;1;0;Y;473;1;N;78;;;59;http://dx.doi.org/10.1016/j.matlet.2017.04.039
Cu-0.1Cr-0.06Zr;Cu low alloyed;99.84;0;0;0;0;0;0;0;0.1;0;0;0;0;0;0;0;0;0;0;0;0;0;0;0;0;0;0.06;1273;1;0;Y;523;1;N;78;;;59;http://dx.doi.org/10.1016/j.matlet.2017.04.039
Cu-0.1Cr-0.06Zr;Cu low alloyed;99.84;0;0;0;0;0;0;0;0.1;0;0;0;0;0;0;0;0;0;0;0;0;0;0;0;0;0;0.06;1273;1;0;Y;573;1;N;72;;;59;http://dx.doi.org/10.1016/j.matlet.2017.04.039
Cu-0.1Cr-0.06Zr;Cu low alloyed;99.84;0;0;0;0;0;0;0;0.1;0;0;0;0;0;0;0;0;0;0;0;0;0;0;0;0;0;0.06;1273;1;0;Y;623;1;N;78;;;61;http://dx.doi.org/10.1016/j.matlet.2017.04.039
Cu-0.1Cr-0.06Zr;Cu low alloyed;99.84;0;0;0;0;0;0;0;0.1;0;0;0;0;0;0;0;0;0;0;0;0;0;0;0;0;0;0.06;1273;1;0;Y;673;1;N;80;;;63;http://dx.doi.org/10.1016/j.matlet.2017.04.039
Cu-0.1Cr-0.06Zr;Cu low alloyed;99.84;0;0;0;0;0;0;0;0.1;0;0;0;0;0;0;0;0;0;0;0;0;0;0;0;0;0;0.06;1273;1;0;Y;723;1;N;96;;;67;http://dx.doi.org/10.1016/j.matlet.2017.04.039
Cu-0.1Cr-0.06Zr;Cu low alloyed;99.84;0;0;0;0;0;0;0;0.1;0;0;0;0;0;0;0;0;0;0;0;0;0;0;0;0;0;0.06;1273;1;0;Y;773;1;N;112;;;78;http://dx.doi.org/10.1016/j.matlet.2017.04.039
Cu-0.1Cr-0.06Zr;Cu low alloyed;99.84;0;0;0;0;0;0;0;0.1;0;0;0;0;0;0;0;0;0;0;0;0;0;0;0;0;0;0.06;1273;1;0;Y;823;1;N;116;;;92;http://dx.doi.org/10.1016/j.matlet.2017.04.039
Cu-0.5Cr-0.08Zr;Cu low alloyed;99.42;0;0;0;0;0;0;0;0.5;0;0;0;0;0;0;0;0;0;0;0;0;0;0;0;0;0;0.08;1273;1;0;N;;;N;82;;;39;http://dx.doi.org/10.1016/j.matlet.2017.04.039
Cu-0.5Cr-0.08Zr;Cu low alloyed;99.42;0;0;0;0;0;0;0;0.5;0;0;0;0;0;0;0;0;0;0;0;0;0;0;0;0;0;0.08;1273;1;0;Y;373;1;N;76;;;38;http://dx.doi.org/10.1016/j.matlet.2017.04.039
Cu-0.5Cr-0.08Zr;Cu low alloyed;99.42;0;0;0;0;0;0;0;0.5;0;0;0;0;0;0;0;0;0;0;0;0;0;0;0;0;0;0.08;1273;1;0;Y;473;1;N;75;;;37;http://dx.doi.org/10.1016/j.matlet.2017.04.039
Cu-0.5Cr-0.08Zr;Cu low alloyed;99.42;0;0;0;0;0;0;0;0.5;0;0;0;0;0;0;0;0;0;0;0;0;0;0;0;0;0;0.08;1273;1;0;Y;523;1;N;75;;;37;http://dx.doi.org/10.1016/j.matlet.2017.04.039
Cu-0.5Cr-0.08Zr;Cu low alloyed;99.42;0;0;0;0;0;0;0;0.5;0;0;0;0;0;0;0;0;0;0;0;0;0;0;0;0;0;0.08;1273;1;0;Y;573;1;N;79;;;38;http://dx.doi.org/10.1016/j.matlet.2017.04.039
Cu-0.5Cr-0.08Zr;Cu low alloyed;99.42;0;0;0;0;0;0;0;0.5;0;0;0;0;0;0;0;0;0;0;0;0;0;0;0;0;0;0.08;1273;1;0;Y;623;1;N;80;;;39;http://dx.doi.org/10.1016/j.matlet.2017.04.039
Cu-0.5Cr-0.08Zr;Cu low alloyed;99.42;0;0;0;0;0;0;0;0.5;0;0;0;0;0;0;0;0;0;0;0;0;0;0;0;0;0;0.08;1273;1;0;Y;673;1;N;76;;;40;http://dx.doi.org/10.1016/j.matlet.2017.04.039
Cu-0.5Cr-0.08Zr;Cu low alloyed;99.42;0;0;0;0;0;0;0;0.5;0;0;0;0;0;0;0;0;0;0;0;0;0;0;0;0;0;0.08;1273;1;0;Y;723;1;N;105;;;61;http://dx.doi.org/10.1016/j.matlet.2017.04.039
Cu-0.5Cr-0.08Zr;Cu low alloyed;99.42;0;0;0;0;0;0;0;0.5;0;0;0;0;0;0;0;0;0;0;0;0;0;0;0;0;0;0.08;1273;1;0;Y;773;1;N;155;;;74;http://dx.doi.org/10.1016/j.matlet.2017.04.039
Cu-0.5Cr-0.08Zr;Cu low alloyed;99.42;0;0;0;0;0;0;0;0.5;0;0;0;0;0;0;0;0;0;0;0;0;0;0;0;0;0;0.08;1273;1;0;Y;823;1;N;141;;;85;http://dx.doi.org/10.1016/j.matlet.2017.04.039
Cu-1Cr-0.1Zr;Cu low alloyed;98.9;0;0;0;0;0;0;0;1;0;0;0;0;0;0;0;0;0;0;0;0;0;0;0;0;0;0.1;1273;1;0;N;;;N;81;;;37;http://dx.doi.org/10.1016/j.matlet.2017.04.039
Cu-1Cr-0.1Zr;Cu low alloyed;98.9;0;0;0;0;0;0;0;1;0;0;0;0;0;0;0;0;0;0;0;0;0;0;0;0;0;0.1;1273;1;0;Y;373;1;N;86;;;37;http://dx.doi.org/10.1016/j.matlet.2017.04.039
Cu-1Cr-0.1Zr;Cu low alloyed;98.9;0;0;0;0;0;0;0;1;0;0;0;0;0;0;0;0;0;0;0;0;0;0;0;0;0;0.1;1273;1;0;Y;473;1;N;80;;;38;http://dx.doi.org/10.1016/j.matlet.2017.04.039
Cu-1Cr-0.1Zr;Cu low alloyed;98.9;0;0;0;0;0;0;0;1;0;0;0;0;0;0;0;0;0;0;0;0;0;0;0;0;0;0.1;1273;1;0;Y;523;1;N;81;;;38;http://dx.doi.org/10.1016/j.matlet.2017.04.039
Cu-1Cr-0.1Zr;Cu low alloyed;98.9;0;0;0;0;0;0;0;1;0;0;0;0;0;0;0;0;0;0;0;0;0;0;0;0;0;0.1;1273;1;0;Y;573;1;N;75;;;39;http://dx.doi.org/10.1016/j.matlet.2017.04.039
Cu-1Cr-0.1Zr;Cu low alloyed;98.9;0;0;0;0;0;0;0;1;0;0;0;0;0;0;0;0;0;0;0;0;0;0;0;0;0;0.1;1273;1;0;Y;623;1;N;86;;;40;http://dx.doi.org/10.1016/j.matlet.2017.04.039
Cu-1Cr-0.1Zr;Cu low alloyed;98.9;0;0;0;0;0;0;0;1;0;0;0;0;0;0;0;0;0;0;0;0;0;0;0;0;0;0.1;1273;1;0;Y;673;1;N;92;;;42;http://dx.doi.org/10.1016/j.matlet.2017.04.039
Cu-1Cr-0.1Zr;Cu low alloyed;98.9;0;0;0;0;0;0;0;1;0;0;0;0;0;0;0;0;0;0;0;0;0;0;0;0;0;0.1;1273;1;0;Y;723;1;N;104;;;57;http://dx.doi.org/10.1016/j.matlet.2017.04.039
Cu-1Cr-0.1Zr;Cu low alloyed;98.9;0;0;0;0;0;0;0;1;0;0;0;0;0;0;0;0;0;0;0;0;0;0;0;0;0;0.1;1273;1;0;Y;773;1;N;148;;;73;http://dx.doi.org/10.1016/j.matlet.2017.04.039
Cu-1Cr-0.1Zr;Cu low alloyed;98.9;0;0;0;0;0;0;0;1;0;0;0;0;0;0;0;0;0;0;0;0;0;0;0;0;0;0.1;1273;1;0;Y;823;1;N;145;;;83;http://dx.doi.org/10.1016/j.matlet.2017.04.039
Cu-0.3Cr-0.5Zr;Cu low alloyed;99.2;0;0;0;0;0;0;0;0.3;0;0;0;0;0;0;0;0;0;0;0;0;0;0;0;0;0;0.5;1273;1;0;N;;;N;90;;;33;http://dx.doi.org/10.1016/j.matlet.2017.04.039
Cu-0.3Cr-0.5Zr;Cu low alloyed;99.2;0;0;0;0;0;0;0;0.3;0;0;0;0;0;0;0;0;0;0;0;0;0;0;0;0;0;0.5;1273;1;0;Y;373;1;N;83;;;32;http://dx.doi.org/10.1016/j.matlet.2017.04.039
Cu-0.3Cr-0.5Zr;Cu low alloyed;99.2;0;0;0;0;0;0;0;0.3;0;0;0;0;0;0;0;0;0;0;0;0;0;0;0;0;0;0.5;1273;1;0;Y;473;1;N;84;;;32;http://dx.doi.org/10.1016/j.matlet.2017.04.039
Cu-0.3Cr-0.5Zr;Cu low alloyed;99.2;0;0;0;0;0;0;0;0.3;0;0;0;0;0;0;0;0;0;0;0;0;0;0;0;0;0;0.5;1273;1;0;Y;523;1;N;84;;;32;http://dx.doi.org/10.1016/j.matlet.2017.04.039
Cu-0.3Cr-0.5Zr;Cu low alloyed;99.2;0;0;0;0;0;0;0;0.3;0;0;0;0;0;0;0;0;0;0;0;0;0;0;0;0;0;0.5;1273;1;0;Y;573;1;N;86;;;33;http://dx.doi.org/10.1016/j.matlet.2017.04.039
Cu-0.3Cr-0.5Zr;Cu low alloyed;99.2;0;0;0;0;0;0;0;0.3;0;0;0;0;0;0;0;0;0;0;0;0;0;0;0;0;0;0.5;1273;1;0;Y;623;1;N;87;;;36;http://dx.doi.org/10.1016/j.matlet.2017.04.039
Cu-0.3Cr-0.5Zr;Cu low alloyed;99.2;0;0;0;0;0;0;0;0.3;0;0;0;0;0;0;0;0;0;0;0;0;0;0;0;0;0;0.5;1273;1;0;Y;673;1;N;88;;;37;http://dx.doi.org/10.1016/j.matlet.2017.04.039
Cu-0.3Cr-0.5Zr;Cu low alloyed;99.2;0;0;0;0;0;0;0;0.3;0;0;0;0;0;0;0;0;0;0;0;0;0;0;0;0;0;0.5;1273;1;0;Y;723;1;N;104;;;43;http://dx.doi.org/10.1016/j.matlet.2017.04.039
Cu-0.3Cr-0.5Zr;Cu low alloyed;99.2;0;0;0;0;0;0;0;0.3;0;0;0;0;0;0;0;0;0;0;0;0;0;0;0;0;0;0.5;1273;1;0;Y;773;1;N;157;;;65;http://dx.doi.org/10.1016/j.matlet.2017.04.039
Cu-0.3Cr-0.5Zr;Cu low alloyed;99.2;0;0;0;0;0;0;0;0.3;0;0;0;0;0;0;0;0;0;0;0;0;0;0;0;0;0;0.5;1273;1;0;Y;823;1;N;144;;;77;http://dx.doi.org/10.1016/j.matlet.2017.04.039
Cu-0.5Zr-0.065B;Cu low alloyed;99.435;0;0;0.065;0;0;0;0;0;0;0;0;0;0;0;0;0;0;0;0;0;0;0;0;0;0;0.5;1208;1;80;N;;;N;;;490;65;https://doi.org/10.1016/j.jallcom.2014.07.010
Cu-0.5Zr-0.065B;Cu low alloyed;99.435;0;0;0.065;0;0;0;0;0;0;0;0;0;0;0;0;0;0;0;0;0;0;0;0;0;0;0.5;1208;1;80;Y;603;1;N;;;502;72;https://doi.org/10.1016/j.jallcom.2014.07.010
Cu-0.5Zr-0.065B;Cu low alloyed;99.435;0;0;0.065;0;0;0;0;0;0;0;0;0;0;0;0;0;0;0;0;0;0;0;0;0;0;0.5;1208;1;80;Y;603;2;N;;;511;73;https://doi.org/10.1016/j.jallcom.2014.07.010
Cu-0.5Zr-0.065B;Cu low alloyed;99.435;0;0;0.065;0;0;0;0;0;0;0;0;0;0;0;0;0;0;0;0;0;0;0;0;0;0;0.5;1208;1;80;Y;603;4;N;;;516;74;https://doi.org/10.1016/j.jallcom.2014.07.010
Cu-0.5Zr-0.065B;Cu low alloyed;99.435;0;0;0.065;0;0;0;0;0;0;0;0;0;0;0;0;0;0;0;0;0;0;0;0;0;0;0.5;1208;1;80;Y;603;6;N;;;520;74;https://doi.org/10.1016/j.jallcom.2014.07.010
Cu-0.5Zr-0.065B;Cu low alloyed;99.435;0;0;0.065;0;0;0;0;0;0;0;0;0;0;0;0;0;0;0;0;0;0;0;0;0;0;0.5;1208;1;80;Y;603;10;N;;;519;74;https://doi.org/10.1016/j.jallcom.2014.07.010
Cu-0.5Zr-0.065B;Cu low alloyed;99.435;0;0;0.065;0;0;0;0;0;0;0;0;0;0;0;0;0;0;0;0;0;0;0;0;0;0;0.5;1208;1;80;Y;633;1;N;;;516;75;https://doi.org/10.1016/j.jallcom.2014.07.010
Cu-0.5Zr-0.065B;Cu low alloyed;99.435;0;0;0.065;0;0;0;0;0;0;0;0;0;0;0;0;0;0;0;0;0;0;0;0;0;0;0.5;1208;1;80;Y;633;2;N;;;524;77;https://doi.org/10.1016/j.jallcom.2014.07.010
Cu-0.5Zr-0.065B;Cu low alloyed;99.435;0;0;0.065;0;0;0;0;0;0;0;0;0;0;0;0;0;0;0;0;0;0;0;0;0;0;0.5;1208;1;80;Y;633;4;N;;;533;78;https://doi.org/10.1016/j.jallcom.2014.07.010
Cu-0.5Zr-0.065B;Cu low alloyed;99.435;0;0;0.065;0;0;0;0;0;0;0;0;0;0;0;0;0;0;0;0;0;0;0;0;0;0;0.5;1208;1;80;Y;633;6;N;;;523;78;https://doi.org/10.1016/j.jallcom.2014.07.010
Cu-0.5Zr-0.065B;Cu low alloyed;99.435;0;0;0.065;0;0;0;0;0;0;0;0;0;0;0;0;0;0;0;0;0;0;0;0;0;0;0.5;1208;1;80;Y;633;10;N;;;507;79;https://doi.org/10.1016/j.jallcom.2014.07.010
Cu-0.5Zr-0.065B;Cu low alloyed;99.435;0;0;0.065;0;0;0;0;0;0;0;0;0;0;0;0;0;0;0;0;0;0;0;0;0;0;0.5;1208;1;80;Y;663;1;N;;;533;78;https://doi.org/10.1016/j.jallcom.2014.07.010
Cu-0.5Zr-0.065B;Cu low alloyed;99.435;0;0;0.065;0;0;0;0;0;0;0;0;0;0;0;0;0;0;0;0;0;0;0;0;0;0;0.5;1208;1;80;Y;663;2;N;;;541;78;https://doi.org/10.1016/j.jallcom.2014.07.010
Cu-0.5Zr-0.065B;Cu low alloyed;99.435;0;0;0.065;0;0;0;0;0;0;0;0;0;0;0;0;0;0;0;0;0;0;0;0;0;0;0.5;1208;1;80;Y;663;4;N;;;524;78;https://doi.org/10.1016/j.jallcom.2014.07.010
Cu-0.5Zr-0.065B;Cu low alloyed;99.435;0;0;0.065;0;0;0;0;0;0;0;0;0;0;0;0;0;0;0;0;0;0;0;0;0;0;0.5;1208;1;80;Y;663;6;N;;;518;79;https://doi.org/10.1016/j.jallcom.2014.07.010
Cu-0.5Zr-0.065B;Cu low alloyed;99.435;0;0;0.065;0;0;0;0;0;0;0;0;0;0;0;0;0;0;0;0;0;0;0;0;0;0;0.5;1208;1;80;Y;663;10;N;;;511;80;https://doi.org/10.1016/j.jallcom.2014.07.010
Cu-0.5Zr-0.065B;Cu low alloyed;99.435;0;0;0.065;0;0;0;0;0;0;0;0;0;0;0;0;0;0;0;0;0;0;0;0;0;0;0.5;1208;1;80;Y;693;1;N;;;524;78;https://doi.org/10.1016/j.jallcom.2014.07.010
Cu-0.5Zr-0.065B;Cu low alloyed;99.435;0;0;0.065;0;0;0;0;0;0;0;0;0;0;0;0;0;0;0;0;0;0;0;0;0;0;0.5;1208;1;80;Y;693;2;N;;;536;79;https://doi.org/10.1016/j.jallcom.2014.07.010
Cu-0.5Zr-0.065B;Cu low alloyed;99.435;0;0;0.065;0;0;0;0;0;0;0;0;0;0;0;0;0;0;0;0;0;0;0;0;0;0;0.5;1208;1;80;Y;693;4;N;;;519;79;https://doi.org/10.1016/j.jallcom.2014.07.010
Cu-0.5Zr-0.065B;Cu low alloyed;99.435;0;0;0.065;0;0;0;0;0;0;0;0;0;0;0;0;0;0;0;0;0;0;0;0;0;0;0.5;1208;1;80;Y;693;6;N;;;507;80;https://doi.org/10.1016/j.jallcom.2014.07.010
Cu-0.5Zr-0.065B;Cu low alloyed;99.435;0;0;0.065;0;0;0;0;0;0;0;0;0;0;0;0;0;0;0;0;0;0;0;0;0;0;0.5;1208;1;80;Y;693;10;N;;;504;80;https://doi.org/10.1016/j.jallcom.2014.07.010
Cu-0.5Zr-0.065B;Cu low alloyed;99.435;0;0;0.065;0;0;0;0;0;0;0;0;0;0;0;0;0;0;0;0;0;0;0;0;0;0;0.5;1208;1;80;Y;723;1;N;;;525;78;https://doi.org/10.1016/j.jallcom.2014.07.010
Cu-0.5Zr-0.065B;Cu low alloyed;99.435;0;0;0.065;0;0;0;0;0;0;0;0;0;0;0;0;0;0;0;0;0;0;0;0;0;0;0.5;1208;1;80;Y;723;2;N;;;534;79;https://doi.org/10.1016/j.jallcom.2014.07.010
Cu-0.5Zr-0.065B;Cu low alloyed;99.435;0;0;0.065;0;0;0;0;0;0;0;0;0;0;0;0;0;0;0;0;0;0;0;0;0;0;0.5;1208;1;80;Y;723;4;N;;;517;80;https://doi.org/10.1016/j.jallcom.2014.07.010
Cu-0.5Zr-0.065B;Cu low alloyed;99.435;0;0;0.065;0;0;0;0;0;0;0;0;0;0;0;0;0;0;0;0;0;0;0;0;0;0;0.5;1208;1;80;Y;723;6;N;;;501;80;https://doi.org/10.1016/j.jallcom.2014.07.010
Cu-0.5Zr-0.065B;Cu low alloyed;99.435;0;0;0.065;0;0;0;0;0;0;0;0;0;0;0;0;0;0;0;0;0;0;0;0;0;0;0.5;1208;1;80;Y;723;10;N;;;493;80;https://doi.org/10.1016/j.jallcom.2014.07.010
Cu-0.5Zr-0.065B;Cu low alloyed;99.435;0;0;0.065;0;0;0;0;0;0;0;0;0;0;0;0;0;0;0;0;0;0;0;0;0;0;0.5;1208;1;80;Y;743;1;N;;;528;78;https://doi.org/10.1016/j.jallcom.2014.07.010
Cu-0.5Zr-0.065B;Cu low alloyed;99.435;0;0;0.065;0;0;0;0;0;0;0;0;0;0;0;0;0;0;0;0;0;0;0;0;0;0;0.5;1208;1;80;Y;743;2;N;;;537;79;https://doi.org/10.1016/j.jallcom.2014.07.010
Cu-0.5Zr-0.065B;Cu low alloyed;99.435;0;0;0.065;0;0;0;0;0;0;0;0;0;0;0;0;0;0;0;0;0;0;0;0;0;0;0.5;1208;1;80;Y;743;4;N;;;515;80;https://doi.org/10.1016/j.jallcom.2014.07.010
Cu-0.5Zr-0.065B;Cu low alloyed;99.435;0;0;0.065;0;0;0;0;0;0;0;0;0;0;0;0;0;0;0;0;0;0;0;0;0;0;0.5;1208;1;80;Y;743;6;N;;;498;81;https://doi.org/10.1016/j.jallcom.2014.07.010
Cu-0.5Zr-0.065B;Cu low alloyed;99.435;0;0;0.065;0;0;0;0;0;0;0;0;0;0;0;0;0;0;0;0;0;0;0;0;0;0;0.5;1208;1;80;Y;743;10;N;;;490;81;https://doi.org/10.1016/j.jallcom.2014.07.010
Cu-0.5Zr-0.065B;Cu low alloyed;99.435;0;0;0.065;0;0;0;0;0;0;0;0;0;0;0;0;0;0;0;0;0;0;0;0;0;0;0.5;1208;1;80;N;;;N;;353;490;65;https://doi.org/10.1016/j.jallcom.2014.07.010
Cu-0.5Zr-0.065B;Cu low alloyed;99.435;0;0;0.065;0;0;0;0;0;0;0;0;0;0;0;0;0;0;0;0;0;0;0;0;0;0;0.5;1208;1;80;Y;743;2;N;;378;536;79;https://doi.org/10.1016/j.jallcom.2014.07.010
Cu-0.5Zr-0.065B;Cu low alloyed;99.435;0;0;0.065;0;0;0;0;0;0;0;0;0;0;0;0;0;0;0;0;0;0;0;0;0;0;0.5;1208;1;80;Y;743;2;Y;;459;551;79;https://doi.org/10.1016/j.jallcom.2014.07.010
Cu-0.5Zr-0.065B;Cu low alloyed;99.435;0;0;0.065;0;0;0;0;0;0;0;0;0;0;0;0;0;0;0;0;0;0;0;0;0;0;0.5;1208;1;80;Y;743;2;Y;;470;551;81;https://doi.org/10.1016/j.jallcom.2014.07.010
Cu-0.5Zr-0.065B;Cu low alloyed;99.435;0;0;0.065;0;0;0;0;0;0;0;0;0;0;0;0;0;0;0;0;0;0;0;0;0;0;0.5;1208;1;80;Y;743;2;Y;;474;568;78;https://doi.org/10.1016/j.jallcom.2014.07.010
Cu-0.5Zr-0.065B;Cu low alloyed;99.435;0;0;0.065;0;0;0;0;0;0;0;0;0;0;0;0;0;0;0;0;0;0;0;0;0;0;0.5;1208;1;80;Y;743;2;Y;;457;574;79;https://doi.org/10.1016/j.jallcom.2014.07.010
Cu-0.22Fe-0.06P;Cu low alloyed;99.72;0;0;0;0;0;0;0;0;0.22;0;0;0;0;0;0;0;0;0;0;0;0;0;0;0;0;0;1173;1.167;50;N;;;N;;449;489;50;https://doi.org/10.1016/j.msea.2006.01.068
Cu-0.22Fe-0.06P;Cu low alloyed;99.72;0;0;0;0;0;0;0;0;0.22;0;0;0;0;0;0;0;0;0;0;0;0;0;0;0;0;0;1173;1.167;50;Y;573;1;N;;415;442;68;https://doi.org/10.1016/j.msea.2006.01.068
[...]
Cu-3Ti-2Mg;Cu-Ti alloys;95;0;0;0;0;0;0;0;0;0;0;0;2;0;0;0;0;0;0;0;0;0;0;3;0;0;0;1023;4;70;Y;723;5;N;328;;376;16;https://doi.org/10.1016/j.jallcom.2019.152915
Cu-3Ti-2Mg;Cu-Ti alloys;95;0;0;0;0;0;0;0;0;0;0;0;2;0;0;0;0;0;0;0;0;0;0;3;0;0;0;1023;4;0;N;;;N;160;;;5;https://doi.org/10.1016/j.jallcom.2019.152915
Cu-3Ti-2Mg;Cu-Ti alloys;95;0;0;0;0;0;0;0;0;0;0;0;2;0;0;0;0;0;0;0;0;0;0;3;0;0;0;1023;4;50;N;;;N;199;;;5;https://doi.org/10.1016/j.jallcom.2019.152915
Cu-3Ti-2Mg;Cu-Ti alloys;95;0;0;0;0;0;0;0;0;0;0;0;2;0;0;0;0;0;0;0;0;0;0;3;0;0;0;1023;4;70;N;;;N;278;;;4;https://doi.org/10.1016/j.jallcom.2019.152915
Cu-1.95Be;Cu-Be alloys;92.95;0;0;0;1.95;0;0;0;0;0;0;0;2;0;0;0;0;0.1;0;0;0;0;0;3;0;0;0;1193;;0;Y;593;0;N;102;200;499;13;https://doi.org/10.1016/j.msea.2019.138592
Cu-1.95Be;Cu-Be alloys;92.95;0;0;0;1.95;0;0;0;0;0;0;0;2;0;0;0;0;0.1;0;0;0;0;0;3;0;0;0;1193;;0;Y;593;1;N;341;1077;1301;15;https://doi.org/10.1016/j.msea.2019.138592
Cu-1.95Be;Cu-Be alloys;92.95;0;0;0;1.95;0;0;0;0;0;0;0;2;0;0;0;0;0.1;0;0;0;0;0;3;0;0;0;1193;;0;Y;593;2;N;345;1152;1364;17;https://doi.org/10.1016/j.msea.2019.138592
Cu-1.95Be;Cu-Be alloys;92.95;0;0;0;1.95;0;0;0;0;0;0;0;2;0;0;0;0;0.1;0;0;0;0;0;3;0;0;0;1193;;0;Y;593;4;N;369;1246;1389;21;https://doi.org/10.1016/j.msea.2019.138592
Cu-1.95Be;Cu-Be alloys;92.95;0;0;0;1.95;0;0;0;0;0;0;0;2;0;0;0;0;0.1;0;0;0;0;0;3;0;0;0;1193;;0;Y;593;6;N;369;1204;1384;22;https://doi.org/10.1016/j.msea.2019.138592
Cu-1.95Be;Cu-Be alloys;92.95;0;0;0;1.95;0;0;0;0;0;0;0;2;0;0;0;0;0.1;0;0;0;0;0;3;0;0;0;1193;;0;Y;593;8;N;369;1173;1385;23;https://doi.org/10.1016/j.msea.2019.138592
Cu-1.95Be;Cu-Be alloys;92.95;0;0;0;1.95;0;0;0;0;0;0;0;2;0;0;0;0;0.1;0;0;0;0;0;3;0;0;0;1193;;0;Y;593;10;N;360;1156;1348;24;https://doi.org/10.1016/j.msea.2019.138592
Cu-1.95Be;Cu-Be alloys;92.95;0;0;0;1.95;0;0;0;0;0;0;0;2;0;0;0;0;0.1;0;0;0;0;0;3;0;0;0;1193;;0;Y;593;12;N;352;1125;1306;24;https://doi.org/10.1016/j.msea.2019.138592
Cu-1.95Be;Cu-Be alloys;92.95;0;0;0;1.95;0;0;0;0;0;0;0;2;0;0;0;0;0.1;0;0;0;0;0;3;0;0;0;1193;;0;Y;593;14;N;344;1101;1269;24;https://doi.org/10.1016/j.msea.2019.138592
Cu-1.95Be;Cu-Be alloys;92.95;0;0;0;1.95;0;0;0;0;0;0;0;2;0;0;0;0;0.1;0;0;0;0;0;3;0;0;0;1193;;0;Y;593;16;N;337;1077;1226;25;https://doi.org/10.1016/j.msea.2019.138592
Cu-1.7Be;Cu-Be alloys;92.57;0.13;0;0;1.66;0;0;0;0;0;0;0;2;0;0;0;0;0.33;0;0;0;0.31;0;3;0;0;0;1053;0.17;0;Y;573;0;N;114;;;18;https://doi.org/10.1016/j.jallcom.2018.09.296
Cu-1.7Be;Cu-Be alloys;92.57;0.13;0;0;1.66;0;0;0;0;0;0;0;2;0;0;0;0;0.33;0;0;0;0.31;0;3;0;0;0;1053;0.17;0;Y;573;0.5;N;300;;;19;https://doi.org/10.1016/j.jallcom.2018.09.296
Cu-1.7Be;Cu-Be alloys;92.57;0.13;0;0;1.66;0;0;0;0;0;0;0;2;0;0;0;0;0.33;0;0;0;0.31;0;3;0;0;0;1053;0.17;0;Y;573;1;N;328;;;19;https://doi.org/10.1016/j.jallcom.2018.09.296
Cu-1.7Be;Cu-Be alloys;92.57;0.13;0;0;1.66;0;0;0;0;0;0;0;2;0;0;0;0;0.33;0;0;0;0.31;0;3;0;0;0;1053;0.17;0;Y;573;2;N;339;;;20;https://doi.org/10.1016/j.jallcom.2018.09.296
Cu-1.7Be;Cu-Be alloys;92.57;0.13;0;0;1.66;0;0;0;0;0;0;0;2;0;0;0;0;0.33;0;0;0;0.31;0;3;0;0;0;1053;0.17;0;Y;573;3;N;352;;;20;https://doi.org/10.1016/j.jallcom.2018.09.296
Cu-1.7Be;Cu-Be alloys;92.57;0.13;0;0;1.66;0;0;0;0;0;0;0;2;0;0;0;0;0.33;0;0;0;0.31;0;3;0;0;0;1053;0.17;0;Y;573;4;N;364;;;21;https://doi.org/10.1016/j.jallcom.2018.09.296
Cu-1.7Be;Cu-Be alloys;92.57;0.13;0;0;1.66;0;0;0;0;0;0;0;2;0;0;0;0;0.33;0;0;0;0.31;0;3;0;0;0;1053;0.17;0;Y;573;8;N;377;;;22;https://doi.org/10.1016/j.jallcom.2018.09.296
Cu-1.7Be;Cu-Be alloys;92.57;0.13;0;0;1.66;0;0;0;0;0;0;0;2;0;0;0;0;0.33;0;0;0;0.31;0;3;0;0;0;1053;0.17;0;Y;573;16;N;401;;;23;https://doi.org/10.1016/j.jallcom.2018.09.296
Cu-1.7Be;Cu-Be alloys;92.57;0.13;0;0;1.66;0;0;0;0;0;0;0;2;0;0;0;0;0.33;0;0;0;0.31;0;3;0;0;0;1053;0.17;0;Y;598;0;N;115;219;487;18;https://doi.org/10.1016/j.jallcom.2018.09.296
Cu-1.7Be;Cu-Be alloys;92.57;0.13;0;0;1.66;0;0;0;0;0;0;0;2;0;0;0;0;0.33;0;0;0;0.31;0;3;0;0;0;1053;0.17;0;Y;598;0.5;N;333;394;674;20;https://doi.org/10.1016/j.jallcom.2018.09.296
Cu-1.7Be;Cu-Be alloys;92.57;0.13;0;0;1.66;0;0;0;0;0;0;0;2;0;0;0;0;0.33;0;0;0;0.31;0;3;0;0;0;1053;0.17;0;Y;598;1;N;351;674;969;20;https://doi.org/10.1016/j.jallcom.2018.09.296
Cu-1.7Be;Cu-Be alloys;92.57;0.13;0;0;1.66;0;0;0;0;0;0;0;2;0;0;0;0;0.33;0;0;0;0.31;0;3;0;0;0;1053;0.17;0;Y;598;2;N;364;779;1043;21;https://doi.org/10.1016/j.jallcom.2018.09.296
Cu-1.7Be;Cu-Be alloys;92.57;0.13;0;0;1.66;0;0;0;0;0;0;0;2;0;0;0;0;0.33;0;0;0;0.31;0;3;0;0;0;1053;0.17;0;Y;598;3;N;375;779;1050;22;https://doi.org/10.1016/j.jallcom.2018.09.296
Cu-1.7Be;Cu-Be alloys;92.57;0.13;0;0;1.66;0;0;0;0;0;0;0;2;0;0;0;0;0.33;0;0;0;0.31;0;3;0;0;0;1053;0.17;0;Y;598;4;N;375;724;996;23;https://doi.org/10.1016/j.jallcom.2018.09.296
Cu-1.7Be;Cu-Be alloys;92.57;0.13;0;0;1.66;0;0;0;0;0;0;0;2;0;0;0;0;0.33;0;0;0;0.31;0;3;0;0;0;1053;0.17;0;Y;598;8;N;369;623;880;26;https://doi.org/10.1016/j.jallcom.2018.09.296
Cu-1.7Be;Cu-Be alloys;92.57;0.13;0;0;1.66;0;0;0;0;0;0;0;2;0;0;0;0;0.33;0;0;0;0.31;0;3;0;0;0;1053;0.17;0;Y;598;16;N;368;581;829;26;https://doi.org/10.1016/j.jallcom.2018.09.296
Cu-1.7Be;Cu-Be alloys;92.57;0.13;0;0;1.66;0;0;0;0;0;0;0;2;0;0;0;0;0.33;0;0;0;0.31;0;3;0;0;0;1053;0.17;0;Y;623;0;N;116;;;18;https://doi.org/10.1016/j.jallcom.2018.09.296
Cu-1.7Be;Cu-Be alloys;92.57;0.13;0;0;1.66;0;0;0;0;0;0;0;2;0;0;0;0;0.33;0;0;0;0.31;0;3;0;0;0;1053;0.17;0;Y;623;0.5;N;341;;;21;https://doi.org/10.1016/j.jallcom.2018.09.296
Cu-1.7Be;Cu-Be alloys;92.57;0.13;0;0;1.66;0;0;0;0;0;0;0;2;0;0;0;0;0.33;0;0;0;0.31;0;3;0;0;0;1053;0.17;0;Y;623;1;N;348;;;22;https://doi.org/10.1016/j.jallcom.2018.09.296
Cu-1.7Be;Cu-Be alloys;92.57;0.13;0;0;1.66;0;0;0;0;0;0;0;2;0;0;0;0;0.33;0;0;0;0.31;0;3;0;0;0;1053;0.17;0;Y;623;2;N;357;;;23;https://doi.org/10.1016/j.jallcom.2018.09.296
Cu-1.7Be;Cu-Be alloys;92.57;0.13;0;0;1.66;0;0;0;0;0;0;0;2;0;0;0;0;0.33;0;0;0;0.31;0;3;0;0;0;1053;0.17;0;Y;623;3;N;347;;;26;https://doi.org/10.1016/j.jallcom.2018.09.296
Cu-1.7Be;Cu-Be alloys;92.57;0.13;0;0;1.66;0;0;0;0;0;0;0;2;0;0;0;0;0.33;0;0;0;0.31;0;3;0;0;0;1053;0.17;0;Y;623;4;N;309;;;27;https://doi.org/10.1016/j.jallcom.2018.09.296
Cu-1.7Be;Cu-Be alloys;92.57;0.13;0;0;1.66;0;0;0;0;0;0;0;2;0;0;0;0;0.33;0;0;0;0.31;0;3;0;0;0;1053;0.17;0;Y;623;8;N;300;;;29;https://doi.org/10.1016/j.jallcom.2018.09.296
Cu-1.7Be;Cu-Be alloys;92.57;0.13;0;0;1.66;0;0;0;0;0;0;0;2;0;0;0;0;0.33;0;0;0;0.31;0;3;0;0;0;1053;0.17;0;Y;623;16;N;297;;;30;https://doi.org/10.1016/j.jallcom.2018.09.296
Cu-1.7Be;Cu-Be alloys;92.57;0.13;0;0;1.66;0;0;0;0;0;0;0;2;0;0;0;0;0.33;0;0;0;0.31;0;3;0;0;0;1053;0.17;0;Y;648;0;N;116;;;18;https://doi.org/10.1016/j.jallcom.2018.09.296
Cu-1.7Be;Cu-Be alloys;92.57;0.13;0;0;1.66;0;0;0;0;0;0;0;2;0;0;0;0;0.33;0;0;0;0.31;0;3;0;0;0;1053;0.17;0;Y;648;0.5;N;348;;;22;https://doi.org/10.1016/j.jallcom.2018.09.296
Cu-1.7Be;Cu-Be alloys;92.57;0.13;0;0;1.66;0;0;0;0;0;0;0;2;0;0;0;0;0.33;0;0;0;0.31;0;3;0;0;0;1053;0.17;0;Y;648;1;N;349;;;25;https://doi.org/10.1016/j.jallcom.2018.09.296
Cu-1.7Be;Cu-Be alloys;92.57;0.13;0;0;1.66;0;0;0;0;0;0;0;2;0;0;0;0;0.33;0;0;0;0.31;0;3;0;0;0;1053;0.17;0;Y;648;2;N;329;;;27;https://doi.org/10.1016/j.jallcom.2018.09.296
Cu-1.7Be;Cu-Be alloys;92.57;0.13;0;0;1.66;0;0;0;0;0;0;0;2;0;0;0;0;0.33;0;0;0;0.31;0;3;0;0;0;1053;0.17;0;Y;648;3;N;311;;;27;https://doi.org/10.1016/j.jallcom.2018.09.296
Cu-1.7Be;Cu-Be alloys;92.57;0.13;0;0;1.66;0;0;0;0;0;0;0;2;0;0;0;0;0.33;0;0;0;0.31;0;3;0;0;0;1053;0.17;0;Y;648;4;N;288;;;28;https://doi.org/10.1016/j.jallcom.2018.09.296
Cu-1.7Be;Cu-Be alloys;92.57;0.13;0;0;1.66;0;0;0;0;0;0;0;2;0;0;0;0;0.33;0;0;0;0.31;0;3;0;0;0;1053;0.17;0;Y;648;8;N;274;;;30;https://doi.org/10.1016/j.jallcom.2018.09.296
Cu-2Be;Cu-Be alloys;92.57;0.13;0;0;1.66;0;0;0;0;0;0;0;2;0;0;0;0;0.33;0;0;0;0.31;0;3;0;0;0;1053;0.17;0;Y;648;16;N;269;;;31;https://doi.org/10.1016/j.jallcom.2018.09.296
Cu-2Be;Cu-Be alloys;98;0;0;0;2;0;0;0;0;0;0;0;0;0;0;0;0;0;0;0;0;0;0;0;0;0;0;1073;;0;Y;593;0;N;;211;502;13;http://dx.doi.org/10.1016/j.msea.2012.08.007
Cu-2Be;Cu-Be alloys;98;0;0;0;2;0;0;0;0;0;0;0;0;0;0;0;0;0;0;0;0;0;0;0;0;0;0;1073;;0;Y;593;1;N;;1065;1302;17;http://dx.doi.org/10.1016/j.msea.2012.08.007
Cu-2Be;Cu-Be alloys;98;0;0;0;2;0;0;0;0;0;0;0;0;0;0;0;0;0;0;0;0;0;0;0;0;0;0;1073;;0;Y;593;2;N;;1162;1351;19;http://dx.doi.org/10.1016/j.msea.2012.08.007
Cu-2Be;Cu-Be alloys;98;0;0;0;2;0;0;0;0;0;0;0;0;0;0;0;0;0;0;0;0;0;0;0;0;0;0;1073;;0;Y;593;4;N;;1235;1361;21;http://dx.doi.org/10.1016/j.msea.2012.08.007
Cu-2Be;Cu-Be alloys;98;0;0;0;2;0;0;0;0;0;0;0;0;0;0;0;0;0;0;0;0;0;0;0;0;0;0;1073;;0;Y;593;8;N;;1164;1372;22;http://dx.doi.org/10.1016/j.msea.2012.08.007
Cu-2Be;Cu-Be alloys;98;0;0;0;2;0;0;0;0;0;0;0;0;0;0;0;0;0;0;0;0;0;0;0;0;0;0;1073;;0;Y;593;16;N;;1070;1225;24;http://dx.doi.org/10.1016/j.msea.2012.08.007